Study Name	Tungsten_temperature_sweep
Sample Name	2024-05-17
Run Name	600C_spot5
Operator	Angus
Date	5/17/2024
Time	22:44
Sign	FIX
Grating Spacing	06.40um
Channel	3
Number Traces	10000
Files in Batch	1
Batch Number	1
dt	50.000001E-12
time stamp (ms)	10:45:33 PM
	
Time	Amplitude
0.000000E+0	4.272095E-3
5.000000E-11	4.356029E-3
1.000000E-10	4.392001E-3
1.500000E-10	4.397140E-3
2.000000E-10	4.371446E-3
2.500000E-10	4.290937E-3
3.000000E-10	4.200151E-3
3.500000E-10	4.133346E-3
4.000000E-10	4.057976E-3
4.500000E-10	3.968903E-3
5.000000E-10	3.914088E-3
5.500000E-10	3.896959E-3
6.000000E-10	3.884968E-3
6.500000E-10	3.900385E-3
7.000000E-10	3.965477E-3
7.500000E-10	4.051124E-3
8.000000E-10	4.121355E-3
8.500000E-10	4.176170E-3
9.000000E-10	4.220706E-3
9.500000E-10	4.282373E-3
1.000000E-9	4.344039E-3
1.050000E-9	4.373159E-3
1.100000E-9	4.362881E-3
1.150000E-9	4.357742E-3
1.200000E-9	4.368020E-3
1.250000E-9	4.369733E-3
1.300000E-9	4.362881E-3
1.350000E-9	4.373159E-3
1.400000E-9	4.388575E-3
1.450000E-9	4.385150E-3
1.500000E-9	4.357742E-3
1.550000E-9	4.316632E-3
1.600000E-9	4.263530E-3
1.650000E-9	4.213855E-3
1.700000E-9	4.157327E-3
1.750000E-9	4.069967E-3
1.800000E-9	3.970616E-3
1.850000E-9	3.888394E-3
1.900000E-9	3.826728E-3
1.950000E-9	3.783904E-3
2.000000E-9	3.771913E-3
2.050000E-9	3.787330E-3
2.100000E-9	3.816450E-3
2.150000E-9	3.866126E-3
2.200000E-9	3.941495E-3
2.250000E-9	4.020291E-3
2.300000E-9	4.097374E-3
2.350000E-9	4.169318E-3
2.400000E-9	4.225845E-3
2.450000E-9	4.265243E-3
2.500000E-9	4.297789E-3
2.550000E-9	4.294363E-3
2.600000E-9	4.249826E-3
2.650000E-9	4.196725E-3
2.700000E-9	4.147049E-3
2.750000E-9	4.075106E-3
2.800000E-9	4.003162E-3
2.850000E-9	3.975754E-3
2.900000E-9	3.994597E-3
2.950000E-9	4.045985E-3
3.000000E-9	4.124781E-3
3.050000E-9	4.218993E-3
3.100000E-9	4.318344E-3
3.150000E-9	4.415983E-3
3.200000E-9	4.520473E-3
3.250000E-9	4.631814E-3
3.300000E-9	4.743156E-3
3.350000E-9	4.801396E-3
3.400000E-9	4.796258E-3
3.450000E-9	4.758573E-3
3.500000E-9	4.698619E-3
3.550000E-9	4.578713E-3
3.600000E-9	4.426260E-3
3.650000E-9	4.285798E-3
3.700000E-9	4.145337E-3
3.750000E-9	3.994597E-3
3.800000E-9	3.860987E-3
3.850000E-9	3.773626E-3
3.900000E-9	3.717099E-3
3.950000E-9	3.689692E-3
4.000000E-9	3.687979E-3
4.050000E-9	3.713673E-3
4.100000E-9	3.758210E-3
4.150000E-9	3.831867E-3
4.200000E-9	3.917514E-3
4.250000E-9	3.992884E-3
4.300000E-9	4.049411E-3
4.350000E-9	4.105939E-3
4.400000E-9	4.169318E-3
4.450000E-9	4.212142E-3
4.500000E-9	4.224132E-3
4.550000E-9	4.237836E-3
4.600000E-9	4.275521E-3
4.650000E-9	4.297789E-3
4.700000E-9	4.277234E-3
4.750000E-9	4.258391E-3
4.800000E-9	4.249826E-3
4.850000E-9	4.224132E-3
4.900000E-9	4.191586E-3
4.950000E-9	4.183021E-3
5.000000E-9	4.179596E-3
5.050000E-9	4.162466E-3
5.100000E-9	4.150475E-3
5.150000E-9	4.155614E-3
5.200000E-9	4.165892E-3
5.250000E-9	4.183021E-3
5.300000E-9	4.210429E-3
5.350000E-9	4.234410E-3
5.400000E-9	4.246401E-3
5.450000E-9	4.246401E-3
5.500000E-9	4.220706E-3
5.550000E-9	4.184734E-3
5.600000E-9	4.159040E-3
5.650000E-9	4.152188E-3
5.700000E-9	4.153901E-3
5.750000E-9	4.153901E-3
5.800000E-9	4.148762E-3
5.850000E-9	4.136772E-3
5.900000E-9	4.109365E-3
5.950000E-9	4.056263E-3
6.000000E-9	3.989458E-3
6.050000E-9	3.936357E-3
6.100000E-9	3.914088E-3
6.150000E-9	3.910662E-3
6.200000E-9	3.908949E-3
6.250000E-9	3.890107E-3
6.300000E-9	3.864413E-3
6.350000E-9	3.854135E-3
6.400000E-9	3.850709E-3
6.450000E-9	3.830154E-3
6.500000E-9	3.799321E-3
6.550000E-9	3.787330E-3
6.600000E-9	3.792469E-3
6.650000E-9	3.792469E-3
6.700000E-9	3.778765E-3
6.750000E-9	3.761636E-3
6.800000E-9	3.746219E-3
6.850000E-9	3.742793E-3
6.900000E-9	3.780478E-3
6.950000E-9	3.855848E-3
7.000000E-9	3.948347E-3
7.050000E-9	4.052837E-3
7.100000E-9	4.201864E-3
7.150000E-9	4.400566E-3
7.200000E-9	4.621537E-3
7.250000E-9	4.818526E-3
7.300000E-9	4.974404E-3
7.350000E-9	5.089172E-3
7.400000E-9	5.154264E-3
7.450000E-9	5.152551E-3
7.500000E-9	5.087459E-3
7.550000E-9	4.988108E-3
7.600000E-9	4.873340E-3
7.650000E-9	4.739730E-3
7.700000E-9	4.600981E-3
7.750000E-9	4.487927E-3
7.800000E-9	4.398853E-3
7.850000E-9	4.344039E-3
7.900000E-9	4.340613E-3
7.950000E-9	4.361168E-3
8.000000E-9	4.376585E-3
8.050000E-9	4.448529E-3
8.100000E-9	4.587278E-3
8.150000E-9	4.676351E-3
8.200000E-9	4.676351E-3
8.250000E-9	4.703758E-3
8.300000E-9	4.750008E-3
8.350000E-9	4.702045E-3
8.400000E-9	4.607833E-3
8.450000E-9	4.556445E-3
8.500000E-9	4.491352E-3
8.550000E-9	4.438251E-3
8.600000E-9	4.499917E-3
8.650000E-9	4.551306E-3
8.700000E-9	4.475936E-3
8.750000E-9	4.467371E-3
8.800000E-9	4.597555E-3
8.850000E-9	4.621537E-3
8.900000E-9	4.530750E-3
8.950000E-9	4.547880E-3
9.000000E-9	4.624963E-3
9.050000E-9	4.616398E-3
9.100000E-9	4.635240E-3
9.150000E-9	4.669499E-3
9.200000E-9	4.510195E-3
9.250000E-9	4.280660E-3
9.300000E-9	4.229271E-3
9.350000E-9	4.280660E-3
9.400000E-9	4.294363E-3
9.450000E-9	4.328622E-3
9.500000E-9	4.304641E-3
9.550000E-9	4.129920E-3
9.600000E-9	4.033995E-3
9.650000E-9	4.140198E-3
9.700000E-9	4.174457E-3
9.750000E-9	4.073393E-3
9.800000E-9	4.107652E-3
9.850000E-9	4.260104E-3
9.900000E-9	4.263530E-3
9.950000E-9	4.148762E-3
1.000000E-8	4.112790E-3
1.005000E-8	4.169318E-3
1.010000E-8	4.249826E-3
1.015000E-8	4.266956E-3
1.020000E-8	4.129920E-3
1.025000E-8	3.987745E-3
1.030000E-8	4.087096E-3
1.035000E-8	4.299502E-3
1.040000E-8	4.378298E-3
1.045000E-8	4.405705E-3
1.050000E-8	4.494778E-3
1.055000E-8	4.551306E-3
1.060000E-8	4.568435E-3
1.065000E-8	4.621537E-3
1.070000E-8	4.600981E-3
1.075000E-8	4.463945E-3
1.080000E-8	4.392001E-3
1.085000E-8	4.386862E-3
1.090000E-8	4.224132E-3
1.095000E-8	3.955199E-3
1.100000E-8	3.826728E-3
1.105000E-8	3.792469E-3
1.110000E-8	3.672562E-3
1.115000E-8	3.580063E-3
1.120000E-8	3.698257E-3
1.125000E-8	3.874690E-3
1.130000E-8	3.914088E-3
1.135000E-8	3.963764E-3
1.140000E-8	4.201864E-3
1.145000E-8	4.448529E-3
1.150000E-8	4.457093E-3
1.155000E-8	4.380011E-3
1.160000E-8	4.448529E-3
1.165000E-8	4.547880E-3
1.170000E-8	4.453668E-3
1.175000E-8	4.273808E-3
1.180000E-8	4.193299E-3
1.185000E-8	4.124781E-3
1.190000E-8	3.984319E-3
1.195000E-8	3.914088E-3
1.200000E-8	3.992884E-3
1.205000E-8	4.117929E-3
1.210000E-8	4.309780E-3
1.215000E-8	4.662647E-3
1.220000E-8	5.101163E-3
1.225000E-8	5.551669E-3
1.230000E-8	6.130646E-3
1.235000E-8	6.935732E-3
1.240000E-8	7.934382E-3
1.245000E-8	9.136873E-3
1.250000E-8	1.065626E-2
1.255000E-8	1.257305E-2
1.260000E-8	1.488725E-2
1.265000E-8	1.754232E-2
1.270000E-8	2.052799E-2
1.275000E-8	2.390422E-2
1.280000E-8	2.765044E-2
1.285000E-8	3.158166E-2
1.290000E-8	3.552316E-2
1.295000E-8	3.941155E-2
1.300000E-8	4.311666E-2
1.305000E-8	4.645349E-2
1.310000E-8	4.930898E-2
1.315000E-8	5.161975E-2
1.320000E-8	5.329844E-2
1.325000E-8	5.428852E-2
1.330000E-8	5.459172E-2
1.335000E-8	5.425426E-2
1.340000E-8	5.336867E-2
1.345000E-8	5.203428E-2
1.350000E-8	5.034703E-2
1.355000E-8	4.843195E-2
1.360000E-8	4.642266E-2
1.365000E-8	4.439281E-2
1.370000E-8	4.237153E-2
1.375000E-8	4.048043E-2
1.380000E-8	3.875207E-2
1.385000E-8	3.714361E-2
1.390000E-8	3.571501E-2
1.395000E-8	3.458617E-2
1.400000E-8	3.368516E-2
1.405000E-8	3.289720E-2
1.410000E-8	3.234392E-2
1.415000E-8	3.210239E-2
1.420000E-8	3.205957E-2
1.425000E-8	3.218633E-2
1.430000E-8	3.260429E-2
1.435000E-8	3.324493E-2
1.440000E-8	3.395238E-2
1.445000E-8	3.472663E-2
1.450000E-8	3.557283E-2
1.455000E-8	3.634537E-2
1.460000E-8	3.692435E-2
1.465000E-8	3.731833E-2
1.470000E-8	3.749647E-2
1.475000E-8	3.737657E-2
1.480000E-8	3.695347E-2
1.485000E-8	3.628542E-2
1.490000E-8	3.540839E-2
1.495000E-8	3.431895E-2
1.500000E-8	3.302739E-2
1.505000E-8	3.162106E-2
1.510000E-8	3.020958E-2
1.515000E-8	2.881182E-2
1.520000E-8	2.745516E-2
1.525000E-8	2.624411E-2
1.530000E-8	2.524203E-2
1.535000E-8	2.440268E-2
1.540000E-8	2.374491E-2
1.545000E-8	2.335265E-2
1.550000E-8	2.323959E-2
1.555000E-8	2.334237E-2
1.560000E-8	2.367639E-2
1.565000E-8	2.427250E-2
1.570000E-8	2.504504E-2
1.575000E-8	2.589809E-2
1.580000E-8	2.680767E-2
1.585000E-8	2.773095E-2
1.590000E-8	2.856001E-2
1.595000E-8	2.925205E-2
1.600000E-8	2.982588E-2
1.605000E-8	3.021644E-2
1.610000E-8	3.033463E-2
1.615000E-8	3.019588E-2
1.620000E-8	2.982074E-2
1.625000E-8	2.918695E-2
1.630000E-8	2.834076E-2
1.635000E-8	2.739349E-2
1.640000E-8	2.639313E-2
1.645000E-8	2.531569E-2
1.650000E-8	2.418171E-2
1.655000E-8	2.305631E-2
1.660000E-8	2.199941E-2
1.665000E-8	2.106586E-2
1.670000E-8	2.029160E-2
1.675000E-8	1.970235E-2
1.680000E-8	1.932550E-2
1.685000E-8	1.916448E-2
1.690000E-8	1.917476E-2
1.695000E-8	1.933406E-2
1.700000E-8	1.964925E-2
1.705000E-8	2.010832E-2
1.710000E-8	2.068216E-2
1.715000E-8	2.134678E-2
1.720000E-8	2.206451E-2
1.725000E-8	2.278395E-2
1.730000E-8	2.349996E-2
1.735000E-8	2.419370E-2
1.740000E-8	2.478981E-2
1.745000E-8	2.520777E-2
1.750000E-8	2.543731E-2
1.755000E-8	2.546471E-2
1.760000E-8	2.525059E-2
1.765000E-8	2.477953E-2
1.770000E-8	2.407551E-2
1.775000E-8	2.316080E-2
1.780000E-8	2.208506E-2
1.785000E-8	2.090141E-2
1.790000E-8	1.964582E-2
1.795000E-8	1.841078E-2
1.800000E-8	1.732135E-2
1.805000E-8	1.642719E-2
1.810000E-8	1.570261E-2
1.815000E-8	1.518016E-2
1.820000E-8	1.491637E-2
1.825000E-8	1.492151E-2
1.830000E-8	1.515618E-2
1.835000E-8	1.559127E-2
1.840000E-8	1.618909E-2
1.845000E-8	1.690339E-2
1.850000E-8	1.770848E-2
1.855000E-8	1.855125E-2
1.860000E-8	1.937518E-2
1.865000E-8	2.016656E-2
1.870000E-8	2.091512E-2
1.875000E-8	2.157460E-2
1.880000E-8	2.209020E-2
1.885000E-8	2.243793E-2
1.890000E-8	2.258524E-2
1.895000E-8	2.249446E-2
1.900000E-8	2.215358E-2
1.905000E-8	2.157289E-2
1.910000E-8	2.078836E-2
1.915000E-8	1.985138E-2
1.920000E-8	1.878421E-2
1.925000E-8	1.760570E-2
1.930000E-8	1.637580E-2
1.935000E-8	1.518530E-2
1.940000E-8	1.410443E-2
1.945000E-8	1.318629E-2
1.950000E-8	1.248398E-2
1.955000E-8	1.204204E-2
1.960000E-8	1.186560E-2
1.965000E-8	1.195125E-2
1.970000E-8	1.228699E-2
1.975000E-8	1.282828E-2
1.980000E-8	1.353402E-2
1.985000E-8	1.437336E-2
1.990000E-8	1.530178E-2
1.995000E-8	1.623876E-2
2.000000E-8	1.712265E-2
2.005000E-8	1.791917E-2
2.010000E-8	1.859750E-2
2.015000E-8	1.910282E-2
2.020000E-8	1.940772E-2
2.025000E-8	1.950365E-2
2.030000E-8	1.938203E-2
2.035000E-8	1.904800E-2
2.040000E-8	1.852555E-2
2.045000E-8	1.783866E-2
2.050000E-8	1.701644E-2
2.055000E-8	1.609659E-2
2.060000E-8	1.511507E-2
2.065000E-8	1.410100E-2
2.070000E-8	1.312119E-2
2.075000E-8	1.225102E-2
2.080000E-8	1.152473E-2
2.085000E-8	1.093718E-2
2.090000E-8	1.052094E-2
2.095000E-8	1.033936E-2
2.100000E-8	1.037876E-2
2.105000E-8	1.059117E-2
2.110000E-8	1.096973E-2
2.115000E-8	1.151616E-2
2.120000E-8	1.217907E-2
2.125000E-8	1.293448E-2
2.130000E-8	1.376698E-2
2.135000E-8	1.462174E-2
2.140000E-8	1.543196E-2
2.145000E-8	1.617881E-2
2.150000E-8	1.680746E-2
2.155000E-8	1.725626E-2
2.160000E-8	1.751491E-2
2.165000E-8	1.757829E-2
2.170000E-8	1.741727E-2
2.175000E-8	1.703357E-2
2.180000E-8	1.646830E-2
2.185000E-8	1.573173E-2
2.190000E-8	1.484956E-2
2.195000E-8	1.389031E-2
2.200000E-8	1.291050E-2
2.205000E-8	1.193241E-2
2.210000E-8	1.099714E-2
2.215000E-8	1.018349E-2
2.220000E-8	9.537703E-3
2.225000E-8	9.097475E-3
2.230000E-8	8.862801E-3
2.235000E-8	8.838820E-3
2.240000E-8	9.025531E-3
2.245000E-8	9.414371E-3
2.250000E-8	9.955663E-3
2.255000E-8	1.060658E-2
2.260000E-8	1.134144E-2
2.265000E-8	1.210542E-2
2.270000E-8	1.285397E-2
2.275000E-8	1.358540E-2
2.280000E-8	1.429799E-2
2.285000E-8	1.492493E-2
2.290000E-8	1.541312E-2
2.295000E-8	1.576770E-2
2.300000E-8	1.599724E-2
2.305000E-8	1.603835E-2
2.310000E-8	1.585164E-2
2.315000E-8	1.547993E-2
2.320000E-8	1.495405E-2
2.325000E-8	1.424489E-2
2.330000E-8	1.335073E-2
2.335000E-8	1.236921E-2
2.340000E-8	1.137912E-2
2.345000E-8	1.039589E-2
2.350000E-8	9.438352E-3
2.355000E-8	8.597294E-3
2.360000E-8	7.956650E-3
2.365000E-8	7.504432E-3
2.370000E-8	7.250915E-3
2.375000E-8	7.261193E-3
2.380000E-8	7.542116E-3
2.385000E-8	8.002900E-3
2.390000E-8	8.604145E-3
2.395000E-8	9.340714E-3
2.400000E-8	1.016122E-2
2.405000E-8	1.098515E-2
2.410000E-8	1.179023E-2
2.415000E-8	1.255421E-2
2.420000E-8	1.323082E-2
2.425000E-8	1.379267E-2
2.430000E-8	1.420378E-2
2.435000E-8	1.443503E-2
2.440000E-8	1.450012E-2
2.445000E-8	1.441105E-2
2.450000E-8	1.416609E-2
2.455000E-8	1.378239E-2
2.460000E-8	1.326337E-2
2.465000E-8	1.259703E-2
2.470000E-8	1.181250E-2
2.475000E-8	1.097144E-2
2.480000E-8	1.009099E-2
2.485000E-8	9.191687E-3
2.490000E-8	8.359194E-3
2.495000E-8	7.656884E-3
2.500000E-8	7.079620E-3
2.505000E-8	6.658234E-3
2.510000E-8	6.432125E-3
2.515000E-8	6.406431E-3
2.520000E-8	6.567448E-3
2.525000E-8	6.911751E-3
2.530000E-8	7.413645E-3
2.535000E-8	8.044011E-3
2.540000E-8	8.777153E-3
2.545000E-8	9.585666E-3
2.550000E-8	1.042330E-2
2.555000E-8	1.123524E-2
2.560000E-8	1.197866E-2
2.565000E-8	1.260902E-2
2.570000E-8	1.310749E-2
2.575000E-8	1.347235E-2
2.580000E-8	1.368304E-2
2.585000E-8	1.369332E-2
2.590000E-8	1.348777E-2
2.595000E-8	1.308522E-2
2.600000E-8	1.249939E-2
2.605000E-8	1.174570E-2
2.610000E-8	1.087894E-2
2.615000E-8	9.948811E-3
2.620000E-8	8.994698E-3
2.625000E-8	8.073131E-3
2.630000E-8	7.256054E-3
2.635000E-8	6.560596E-3
2.640000E-8	5.986758E-3
2.645000E-8	5.599631E-3
2.650000E-8	5.467734E-3
2.655000E-8	5.582502E-3
2.660000E-8	5.901110E-3
2.665000E-8	6.413282E-3
2.670000E-8	7.103601E-3
2.675000E-8	7.917253E-3
2.680000E-8	8.789144E-3
2.685000E-8	9.678165E-3
2.690000E-8	1.052094E-2
2.695000E-8	1.124380E-2
2.700000E-8	1.184676E-2
2.705000E-8	1.234352E-2
2.710000E-8	1.267583E-2
2.715000E-8	1.277175E-2
2.720000E-8	1.266555E-2
2.725000E-8	1.238977E-2
2.730000E-8	1.192727E-2
2.735000E-8	1.129176E-2
2.740000E-8	1.055348E-2
2.745000E-8	9.748396E-3
2.750000E-8	8.897060E-3
2.755000E-8	8.050863E-3
2.760000E-8	7.254341E-3
2.765000E-8	6.543467E-3
2.770000E-8	5.949073E-3
2.775000E-8	5.481438E-3
2.780000E-8	5.135422E-3
2.785000E-8	4.953849E-3
2.790000E-8	4.972691E-3
2.795000E-8	5.173107E-3
2.800000E-8	5.532826E-3
2.805000E-8	6.055276E-3
2.810000E-8	6.735317E-3
2.815000E-8	7.535265E-3
2.820000E-8	8.408869E-3
2.825000E-8	9.299603E-3
2.830000E-8	1.014923E-2
2.835000E-8	1.092005E-2
2.840000E-8	1.155727E-2
2.845000E-8	1.201463E-2
2.850000E-8	1.228014E-2
2.855000E-8	1.234009E-2
2.860000E-8	1.216879E-2
2.865000E-8	1.178852E-2
2.870000E-8	1.124551E-2
2.875000E-8	1.055520E-2
2.880000E-8	9.758674E-3
2.885000E-8	8.934745E-3
2.890000E-8	8.139936E-3
2.895000E-8	7.387951E-3
2.900000E-8	6.726752E-3
2.905000E-8	6.195738E-3
2.910000E-8	5.779491E-3
2.915000E-8	5.490002E-3
2.920000E-8	5.356392E-3
2.925000E-8	5.349540E-3
2.930000E-8	5.431762E-3
2.935000E-8	5.633890E-3
2.940000E-8	5.957638E-3
2.945000E-8	6.353329E-3
2.950000E-8	6.798696E-3
2.955000E-8	7.314294E-3
2.960000E-8	7.889845E-3
2.965000E-8	8.492804E-3
2.970000E-8	9.092336E-3
2.975000E-8	9.659323E-3
2.980000E-8	1.016293E-2
2.985000E-8	1.057061E-2
2.990000E-8	1.084126E-2
2.995000E-8	1.095945E-2
3.000000E-8	1.093204E-2
3.005000E-8	1.075561E-2
3.010000E-8	1.043872E-2
3.015000E-8	9.996774E-3
3.020000E-8	9.440065E-3
3.025000E-8	8.785718E-3
3.030000E-8	8.085122E-3
3.035000E-8	7.381099E-3
3.040000E-8	6.689067E-3
3.045000E-8	6.038146E-3
3.050000E-8	5.496854E-3
3.055000E-8	5.120005E-3
3.060000E-8	4.907599E-3
3.065000E-8	4.847646E-3
3.070000E-8	4.941858E-3
3.075000E-8	5.210791E-3
3.080000E-8	5.637316E-3
3.085000E-8	6.188886E-3
3.090000E-8	6.810687E-3
3.095000E-8	7.473598E-3
3.100000E-8	8.141649E-3
3.105000E-8	8.766876E-3
3.110000E-8	9.292751E-3
3.115000E-8	9.702146E-3
3.120000E-8	9.991635E-3
3.125000E-8	1.014409E-2
3.130000E-8	1.015950E-2
3.135000E-8	1.004988E-2
3.140000E-8	9.823766E-3
3.145000E-8	9.496592E-3
3.150000E-8	9.088910E-3
3.155000E-8	8.605858E-3
3.160000E-8	8.064566E-3
3.165000E-8	7.502719E-3
3.170000E-8	6.932306E-3
3.175000E-8	6.353329E-3
3.180000E-8	5.813750E-3
3.185000E-8	5.344402E-3
3.190000E-8	4.952136E-3
3.195000E-8	4.679777E-3
3.200000E-8	4.553019E-3
3.205000E-8	4.546167E-3
3.210000E-8	4.671212E-3
3.215000E-8	4.955562E-3
3.220000E-8	5.370096E-3
3.225000E-8	5.887407E-3
3.230000E-8	6.510921E-3
3.235000E-8	7.194388E-3
3.240000E-8	7.877855E-3
3.245000E-8	8.549331E-3
3.250000E-8	9.177984E-3
3.255000E-8	9.698721E-3
3.260000E-8	1.009099E-2
3.265000E-8	1.035135E-2
3.270000E-8	1.044728E-2
3.275000E-8	1.036677E-2
3.280000E-8	1.013210E-2
3.285000E-8	9.738118E-3
3.290000E-8	9.195113E-3
3.295000E-8	8.556183E-3
3.300000E-8	7.869290E-3
3.305000E-8	7.190962E-3
3.310000E-8	6.560596E-3
3.315000E-8	5.985045E-3
3.320000E-8	5.476299E-3
3.325000E-8	5.085746E-3
3.330000E-8	4.854498E-3
3.335000E-8	4.765424E-3
3.340000E-8	4.797970E-3
3.345000E-8	4.943571E-3
3.350000E-8	5.193662E-3
3.355000E-8	5.534539E-3
3.360000E-8	5.935369E-3
3.365000E-8	6.334487E-3
3.370000E-8	6.723326E-3
3.375000E-8	7.134434E-3
3.380000E-8	7.552394E-3
3.385000E-8	7.939521E-3
3.390000E-8	8.275259E-3
3.395000E-8	8.563035E-3
3.400000E-8	8.806274E-3
3.405000E-8	8.986133E-3
3.410000E-8	9.071781E-3
3.415000E-8	9.032383E-3
3.420000E-8	8.879930E-3
3.425000E-8	8.621275E-3
3.430000E-8	8.247852E-3
3.435000E-8	7.769939E-3
3.440000E-8	7.238924E-3
3.445000E-8	6.673651E-3
3.450000E-8	6.082683E-3
3.455000E-8	5.505419E-3
3.460000E-8	4.998386E-3
3.465000E-8	4.578713E-3
3.470000E-8	4.263530E-3
3.475000E-8	4.100800E-3
3.480000E-8	4.100800E-3
3.485000E-8	4.234410E-3
3.490000E-8	4.513621E-3
3.495000E-8	4.945284E-3
3.500000E-8	5.476299E-3
3.505000E-8	6.060415E-3
3.510000E-8	6.692493E-3
3.515000E-8	7.338275E-3
3.520000E-8	7.937808E-3
3.525000E-8	8.470535E-3
3.530000E-8	8.912477E-3
3.535000E-8	9.232798E-3
3.540000E-8	9.412658E-3
3.545000E-8	9.479463E-3
3.550000E-8	9.433213E-3
3.555000E-8	9.268770E-3
3.560000E-8	8.980995E-3
3.565000E-8	8.569886E-3
3.570000E-8	8.074844E-3
3.575000E-8	7.536978E-3
3.580000E-8	6.975130E-3
3.585000E-8	6.399579E-3
3.590000E-8	5.851435E-3
3.595000E-8	5.364957E-3
3.600000E-8	4.960701E-3
3.605000E-8	4.652370E-3
3.610000E-8	4.455380E-3
3.615000E-8	4.380011E-3
3.620000E-8	4.421121E-3
3.625000E-8	4.566722E-3
3.630000E-8	4.811674E-3
3.635000E-8	5.149125E-3
3.640000E-8	5.560233E-3
3.645000E-8	6.003887E-3
3.650000E-8	6.476662E-3
3.655000E-8	6.968278E-3
3.660000E-8	7.435914E-3
3.665000E-8	7.843596E-3
3.670000E-8	8.170769E-3
3.675000E-8	8.414008E-3
3.680000E-8	8.568174E-3
3.685000E-8	8.621275E-3
3.690000E-8	8.542479E-3
3.695000E-8	8.316370E-3
3.700000E-8	7.968641E-3
3.705000E-8	7.511283E-3
3.710000E-8	6.973417E-3
3.715000E-8	6.414995E-3
3.720000E-8	5.877129E-3
3.725000E-8	5.349540E-3
3.730000E-8	4.869914E-3
3.735000E-8	4.513621E-3
3.740000E-8	4.282373E-3
3.745000E-8	4.150475E-3
3.750000E-8	4.141911E-3
3.755000E-8	4.289224E-3
3.760000E-8	4.561583E-3
3.765000E-8	4.928155E-3
3.770000E-8	5.371809E-3
3.775000E-8	5.871990E-3
3.780000E-8	6.399579E-3
3.785000E-8	6.928880E-3
3.790000E-8	7.415358E-3
3.795000E-8	7.852160E-3
3.800000E-8	8.234148E-3
3.805000E-8	8.515072E-3
3.810000E-8	8.689793E-3
3.815000E-8	8.797709E-3
3.820000E-8	8.823403E-3
3.825000E-8	8.701784E-3
3.830000E-8	8.458545E-3
3.835000E-8	8.141649E-3
3.840000E-8	7.740819E-3
3.845000E-8	7.249202E-3
3.850000E-8	6.735317E-3
3.855000E-8	6.247126E-3
3.860000E-8	5.784630E-3
3.865000E-8	5.371809E-3
3.870000E-8	5.020654E-3
3.875000E-8	4.729452E-3
3.880000E-8	4.517047E-3
3.885000E-8	4.414270E-3
3.890000E-8	4.407418E-3
3.895000E-8	4.481075E-3
3.900000E-8	4.638666E-3
3.905000E-8	4.873340E-3
3.910000E-8	5.152551E-3
3.915000E-8	5.471160E-3
3.920000E-8	5.832592E-3
3.925000E-8	6.233423E-3
3.930000E-8	6.665086E-3
3.935000E-8	7.100175E-3
3.940000E-8	7.504432E-3
3.945000E-8	7.836744E-3
3.950000E-8	8.074844E-3
3.955000E-8	8.206741E-3
3.960000E-8	8.234148E-3
3.965000E-8	8.158778E-3
3.970000E-8	7.977206E-3
3.975000E-8	7.680865E-3
3.980000E-8	7.288600E-3
3.985000E-8	6.846659E-3
3.990000E-8	6.384162E-3
3.995000E-8	5.902823E-3
4.000000E-8	5.430049E-3
4.005000E-8	5.001812E-3
4.010000E-8	4.648944E-3
4.015000E-8	4.386862E-3
4.020000E-8	4.234410E-3
4.025000E-8	4.196725E-3
4.030000E-8	4.261817E-3
4.035000E-8	4.412557E-3
4.040000E-8	4.631814E-3
4.045000E-8	4.909312E-3
4.050000E-8	5.255328E-3
4.055000E-8	5.669862E-3
4.060000E-8	6.127220E-3
4.065000E-8	6.586290E-3
4.070000E-8	7.024806E-3
4.075000E-8	7.437627E-3
4.080000E-8	7.788781E-3
4.085000E-8	8.023455E-3
4.090000E-8	8.131371E-3
4.095000E-8	8.141649E-3
4.100000E-8	8.054289E-3
4.105000E-8	7.869290E-3
4.110000E-8	7.612347E-3
4.115000E-8	7.273183E-3
4.120000E-8	6.855223E-3
4.125000E-8	6.420134E-3
4.130000E-8	6.002174E-3
4.135000E-8	5.579076E-3
4.140000E-8	5.179958E-3
4.145000E-8	4.864776E-3
4.150000E-8	4.626675E-3
4.155000E-8	4.443390E-3
4.160000E-8	4.342326E-3
4.165000E-8	4.332048E-3
4.170000E-8	4.373159E-3
4.175000E-8	4.450242E-3
4.180000E-8	4.580426E-3
4.185000E-8	4.772276E-3
4.190000E-8	5.012089E-3
4.195000E-8	5.291300E-3
4.200000E-8	5.587640E-3
4.205000E-8	5.902823E-3
4.210000E-8	6.236849E-3
4.215000E-8	6.557170E-3
4.220000E-8	6.841520E-3
4.225000E-8	7.098462E-3
4.230000E-8	7.307442E-3
4.235000E-8	7.429062E-3
4.240000E-8	7.459895E-3
4.245000E-8	7.399942E-3
4.250000E-8	7.230360E-3
4.255000E-8	6.975130E-3
4.260000E-8	6.666799E-3
4.265000E-8	6.296802E-3
4.270000E-8	5.863425E-3
4.275000E-8	5.431762E-3
4.280000E-8	5.037783E-3
4.285000E-8	4.678064E-3
4.290000E-8	4.376585E-3
4.295000E-8	4.174457E-3
4.300000E-8	4.080244E-3
4.305000E-8	4.081957E-3
4.310000E-8	4.177883E-3
4.315000E-8	4.362881E-3
4.320000E-8	4.630101E-3
4.325000E-8	4.948710E-3
4.330000E-8	5.296439E-3
4.335000E-8	5.657871E-3
4.340000E-8	6.029582E-3
4.345000E-8	6.399579E-3
4.350000E-8	6.743882E-3
4.355000E-8	7.060778E-3
4.360000E-8	7.336562E-3
4.365000E-8	7.526700E-3
4.370000E-8	7.602070E-3
4.375000E-8	7.591792E-3
4.380000E-8	7.526700E-3
4.385000E-8	7.405080E-3
4.390000E-8	7.206378E-3
4.395000E-8	6.939158E-3
4.400000E-8	6.625688E-3
4.405000E-8	6.279672E-3
4.410000E-8	5.902823E-3
4.415000E-8	5.503706E-3
4.420000E-8	5.130283E-3
4.425000E-8	4.803109E-3
4.430000E-8	4.503343E-3
4.435000E-8	4.249826E-3
4.440000E-8	4.095661E-3
4.445000E-8	4.044272E-3
4.450000E-8	4.061402E-3
4.455000E-8	4.157327E-3
4.460000E-8	4.361168E-3
4.465000E-8	4.650657E-3
4.470000E-8	5.008663E-3
4.475000E-8	5.426623E-3
4.480000E-8	5.894259E-3
4.485000E-8	6.370459E-3
4.490000E-8	6.803835E-3
4.495000E-8	7.161842E-3
4.500000E-8	7.425636E-3
4.505000E-8	7.576375E-3
4.510000E-8	7.600357E-3
4.515000E-8	7.519848E-3
4.520000E-8	7.369109E-3
4.525000E-8	7.144712E-3
4.530000E-8	6.850085E-3
4.535000E-8	6.521198E-3
4.540000E-8	6.192312E-3
4.545000E-8	5.846296E-3
4.550000E-8	5.478012E-3
4.555000E-8	5.135422E-3
4.560000E-8	4.861350E-3
4.565000E-8	4.643805E-3
4.570000E-8	4.457093E-3
4.575000E-8	4.306354E-3
4.580000E-8	4.213855E-3
4.585000E-8	4.184734E-3
4.590000E-8	4.205290E-3
4.595000E-8	4.301215E-3
4.600000E-8	4.487927E-3
4.605000E-8	4.750008E-3
4.610000E-8	5.065191E-3
4.615000E-8	5.430049E-3
4.620000E-8	5.830879E-3
4.625000E-8	6.235136E-3
4.630000E-8	6.617123E-3
4.635000E-8	6.958000E-3
4.640000E-8	7.233785E-3
4.645000E-8	7.422210E-3
4.650000E-8	7.524987E-3
4.655000E-8	7.547255E-3
4.660000E-8	7.477024E-3
4.665000E-8	7.305729E-3
4.670000E-8	7.057352E-3
4.675000E-8	6.755872E-3
4.680000E-8	6.409856E-3
4.685000E-8	6.044998E-3
4.690000E-8	5.704121E-3
4.695000E-8	5.400929E-3
4.700000E-8	5.126857E-3
4.705000E-8	4.890470E-3
4.710000E-8	4.703758E-3
4.715000E-8	4.588991E-3
4.720000E-8	4.561583E-3
4.725000E-8	4.599268E-3
4.730000E-8	4.683203E-3
4.735000E-8	4.840794E-3
4.740000E-8	5.085746E-3
4.745000E-8	5.371809E-3
4.750000E-8	5.645881E-3
4.755000E-8	5.911388E-3
4.760000E-8	6.176895E-3
4.765000E-8	6.416708E-3
4.770000E-8	6.608559E-3
4.775000E-8	6.757585E-3
4.780000E-8	6.860362E-3
4.785000E-8	6.887770E-3
4.790000E-8	6.838094E-3
4.795000E-8	6.728465E-3
4.800000E-8	6.557170E-3
4.805000E-8	6.312218E-3
4.810000E-8	6.015878E-3
4.815000E-8	5.700695E-3
4.820000E-8	5.368383E-3
4.825000E-8	5.036071E-3
4.830000E-8	4.755147E-3
4.835000E-8	4.534176E-3
4.840000E-8	4.350891E-3
4.845000E-8	4.230984E-3
4.850000E-8	4.201864E-3
4.855000E-8	4.265243E-3
4.860000E-8	4.422834E-3
4.865000E-8	4.662647E-3
4.870000E-8	4.935006E-3
4.875000E-8	5.210791E-3
4.880000E-8	5.495141E-3
4.885000E-8	5.760648E-3
4.890000E-8	5.988471E-3
4.895000E-8	6.200877E-3
4.900000E-8	6.392727E-3
4.905000E-8	6.528050E-3
4.910000E-8	6.615410E-3
4.915000E-8	6.682216E-3
4.920000E-8	6.706197E-3
4.925000E-8	6.687354E-3
4.930000E-8	6.656521E-3
4.935000E-8	6.586290E-3
4.940000E-8	6.449254E-3
4.945000E-8	6.281385E-3
4.950000E-8	6.108377E-3
4.955000E-8	5.897684E-3
4.960000E-8	5.654446E-3
4.965000E-8	5.416345E-3
4.970000E-8	5.188523E-3
4.975000E-8	4.970978E-3
4.980000E-8	4.782554E-3
4.985000E-8	4.643805E-3
4.990000E-8	4.549593E-3
4.995000E-8	4.518760E-3
5.000000E-8	4.556445E-3
5.005000E-8	4.631814E-3
5.010000E-8	4.727740E-3
5.015000E-8	4.861350E-3
5.020000E-8	5.037783E-3
5.025000E-8	5.229634E-3
5.030000E-8	5.431762E-3
5.035000E-8	5.637316E-3
5.040000E-8	5.839444E-3
5.045000E-8	6.024443E-3
5.050000E-8	6.175182E-3
5.055000E-8	6.283098E-3
5.060000E-8	6.370459E-3
5.065000E-8	6.440690E-3
5.070000E-8	6.464671E-3
5.075000E-8	6.425273E-3
5.080000E-8	6.346477E-3
5.085000E-8	6.229997E-3
5.090000E-8	6.055276E-3
5.095000E-8	5.844583E-3
5.100000E-8	5.627038E-3
5.105000E-8	5.395790E-3
5.110000E-8	5.138848E-3
5.115000E-8	4.905886E-3
5.120000E-8	4.729452E-3
5.125000E-8	4.599268E-3
5.130000E-8	4.518760E-3
5.135000E-8	4.527324E-3
5.140000E-8	4.654083E-3
5.145000E-8	4.857924E-3
5.150000E-8	5.104589E-3
5.155000E-8	5.387225E-3
5.160000E-8	5.712686E-3
5.165000E-8	6.041572E-3
5.170000E-8	6.341338E-3
5.175000E-8	6.605133E-3
5.180000E-8	6.815826E-3
5.185000E-8	6.952862E-3
5.190000E-8	7.002537E-3
5.195000E-8	6.956288E-3
5.200000E-8	6.814113E-3
5.205000E-8	6.598281E-3
5.210000E-8	6.346477E-3
5.215000E-8	6.074118E-3
5.220000E-8	5.793194E-3
5.225000E-8	5.513984E-3
5.230000E-8	5.251902E-3
5.235000E-8	5.024080E-3
5.240000E-8	4.833942E-3
5.245000E-8	4.664360E-3
5.250000E-8	4.508482E-3
5.255000E-8	4.381724E-3
5.260000E-8	4.308067E-3
5.265000E-8	4.289224E-3
5.270000E-8	4.325196E-3
5.275000E-8	4.426260E-3
5.280000E-8	4.570148E-3
5.285000E-8	4.751721E-3
5.290000E-8	4.976117E-3
5.295000E-8	5.241625E-3
5.300000E-8	5.527687E-3
5.305000E-8	5.812037E-3
5.310000E-8	6.063841E-3
5.315000E-8	6.262543E-3
5.320000E-8	6.394440E-3
5.325000E-8	6.459532E-3
5.330000E-8	6.471523E-3
5.335000E-8	6.435551E-3
5.340000E-8	6.356755E-3
5.345000E-8	6.236849E-3
5.350000E-8	6.086109E-3
5.355000E-8	5.926805E-3
5.360000E-8	5.777778E-3
5.365000E-8	5.649307E-3
5.370000E-8	5.525974E-3
5.375000E-8	5.402642E-3
5.380000E-8	5.287874E-3
5.385000E-8	5.183384E-3
5.390000E-8	5.085746E-3
5.395000E-8	5.006950E-3
5.400000E-8	4.941858E-3
5.405000E-8	4.887044E-3
5.410000E-8	4.857924E-3
5.415000E-8	4.861350E-3
5.420000E-8	4.897322E-3
5.425000E-8	4.974404E-3
5.430000E-8	5.085746E-3
5.435000E-8	5.214217E-3
5.440000E-8	5.340976E-3
5.445000E-8	5.467734E-3
5.450000E-8	5.594492E-3
5.455000E-8	5.710973E-3
5.460000E-8	5.810324E-3
5.465000E-8	5.875416E-3
5.470000E-8	5.906249E-3
5.475000E-8	5.931943E-3
5.480000E-8	5.966202E-3
5.485000E-8	5.986758E-3
5.490000E-8	5.993610E-3
5.495000E-8	5.993610E-3
5.500000E-8	5.973054E-3
5.505000E-8	5.914814E-3
5.510000E-8	5.854861E-3
5.515000E-8	5.800046E-3
5.520000E-8	5.702408E-3
5.525000E-8	5.543104E-3
5.530000E-8	5.358105E-3
5.535000E-8	5.152551E-3
5.540000E-8	4.938432E-3
5.545000E-8	4.763711E-3
5.550000E-8	4.631814E-3
5.555000E-8	4.520473E-3
5.560000E-8	4.467371E-3
5.565000E-8	4.513621E-3
5.570000E-8	4.645518E-3
5.575000E-8	4.842507E-3
5.580000E-8	5.102876E-3
5.585000E-8	5.394077E-3
5.590000E-8	5.688705E-3
5.595000E-8	5.983332E-3
5.600000E-8	6.260830E-3
5.605000E-8	6.483513E-3
5.610000E-8	6.639392E-3
5.615000E-8	6.709623E-3
5.620000E-8	6.668512E-3
5.625000E-8	6.526337E-3
5.630000E-8	6.283098E-3
5.635000E-8	5.949073E-3
5.640000E-8	5.577363E-3
5.645000E-8	5.214217E-3
5.650000E-8	4.854498E-3
5.655000E-8	4.520473E-3
5.660000E-8	4.268669E-3
5.665000E-8	4.095661E-3
5.670000E-8	3.975754E-3
5.675000E-8	3.946634E-3
5.680000E-8	4.011726E-3
5.685000E-8	4.124781E-3
5.690000E-8	4.284085E-3
5.695000E-8	4.517047E-3
5.700000E-8	4.782554E-3
5.705000E-8	5.051487E-3
5.710000E-8	5.316994E-3
5.715000E-8	5.546530E-3
5.720000E-8	5.717825E-3
5.725000E-8	5.865138E-3
5.730000E-8	6.005600E-3
5.735000E-8	6.108377E-3
5.740000E-8	6.166618E-3
5.745000E-8	6.202590E-3
5.750000E-8	6.212867E-3
5.755000E-8	6.190599E-3
5.760000E-8	6.139210E-3
5.765000E-8	6.060415E-3
5.770000E-8	5.969628E-3
5.775000E-8	5.887407E-3
5.780000E-8	5.808611E-3
5.785000E-8	5.707547E-3
5.790000E-8	5.599631E-3
5.795000E-8	5.486576E-3
5.800000E-8	5.347827E-3
5.805000E-8	5.217643E-3
5.810000E-8	5.133709E-3
5.815000E-8	5.054913E-3
5.820000E-8	4.977830E-3
5.825000E-8	4.955562E-3
5.830000E-8	4.976117E-3
5.835000E-8	4.988108E-3
5.840000E-8	5.030932E-3
5.845000E-8	5.140560E-3
5.850000E-8	5.258754E-3
5.855000E-8	5.358105E-3
5.860000E-8	5.488289E-3
5.865000E-8	5.627038E-3
5.870000E-8	5.734954E-3
5.875000E-8	5.839444E-3
5.880000E-8	5.964489E-3
5.885000E-8	6.067266E-3
5.890000E-8	6.127220E-3
5.895000E-8	6.147775E-3
5.900000E-8	6.120368E-3
5.905000E-8	6.072405E-3
5.910000E-8	6.015878E-3
5.915000E-8	5.913101E-3
5.920000E-8	5.777778E-3
5.925000E-8	5.663010E-3
5.930000E-8	5.563659E-3
5.935000E-8	5.464308E-3
5.940000E-8	5.395790E-3
5.945000E-8	5.354679E-3
5.950000E-8	5.313568E-3
5.955000E-8	5.298152E-3
5.960000E-8	5.339263E-3
5.965000E-8	5.412920E-3
5.970000E-8	5.515697E-3
5.975000E-8	5.651020E-3
5.980000E-8	5.789769E-3
5.985000E-8	5.906249E-3
5.990000E-8	6.002174E-3
5.995000E-8	6.079257E-3
6.000000E-8	6.137497E-3
6.005000E-8	6.187173E-3
6.010000E-8	6.228284E-3
6.015000E-8	6.247126E-3
6.020000E-8	6.250552E-3
6.025000E-8	6.245413E-3
6.030000E-8	6.218006E-3
6.035000E-8	6.175182E-3
6.040000E-8	6.125507E-3
6.045000E-8	6.058702E-3
6.050000E-8	5.983332E-3
6.055000E-8	5.904536E-3
6.060000E-8	5.791482E-3
6.065000E-8	5.635603E-3
6.070000E-8	5.488289E-3
6.075000E-8	5.368383E-3
6.080000E-8	5.234773E-3
6.085000E-8	5.104589E-3
6.090000E-8	5.030932E-3
6.095000E-8	5.008663E-3
6.100000E-8	5.017228E-3
6.105000E-8	5.070330E-3
6.110000E-8	5.162829E-3
6.115000E-8	5.274171E-3
6.120000E-8	5.421484E-3
6.125000E-8	5.615048E-3
6.130000E-8	5.810324E-3
6.135000E-8	5.990184E-3
6.140000E-8	6.158053E-3
6.145000E-8	6.296802E-3
6.150000E-8	6.387588E-3
6.155000E-8	6.450967E-3
6.160000E-8	6.488652E-3
6.165000E-8	6.473236E-3
6.170000E-8	6.430412E-3
6.175000E-8	6.385875E-3
6.180000E-8	6.331061E-3
6.185000E-8	6.253978E-3
6.190000E-8	6.175182E-3
6.195000E-8	6.108377E-3
6.200000E-8	6.063841E-3
6.205000E-8	6.014165E-3
6.210000E-8	5.940508E-3
6.215000E-8	5.853148E-3
6.220000E-8	5.767500E-3
6.225000E-8	5.651020E-3
6.230000E-8	5.517410E-3
6.235000E-8	5.411207E-3
6.240000E-8	5.328985E-3
6.245000E-8	5.245050E-3
6.250000E-8	5.191949E-3
6.255000E-8	5.200514E-3
6.260000E-8	5.250189E-3
6.265000E-8	5.332411E-3
6.270000E-8	5.433475E-3
6.275000E-8	5.541391E-3
6.280000E-8	5.656158E-3
6.285000E-8	5.782917E-3
6.290000E-8	5.895971E-3
6.295000E-8	5.973054E-3
6.300000E-8	6.038146E-3
6.305000E-8	6.103238E-3
6.310000E-8	6.134072E-3
6.315000E-8	6.130646E-3
6.320000E-8	6.111803E-3
6.325000E-8	6.072405E-3
6.330000E-8	5.981619E-3
6.335000E-8	5.860000E-3
6.340000E-8	5.758935E-3
6.345000E-8	5.659584E-3
6.350000E-8	5.544817E-3
6.355000E-8	5.450604E-3
6.360000E-8	5.390651E-3
6.365000E-8	5.308430E-3
6.370000E-8	5.203940E-3
6.375000E-8	5.147412E-3
6.380000E-8	5.140560E-3
6.385000E-8	5.120005E-3
6.390000E-8	5.092598E-3
6.395000E-8	5.097737E-3
6.400000E-8	5.108014E-3
6.405000E-8	5.092598E-3
6.410000E-8	5.089172E-3
6.415000E-8	5.125144E-3
6.420000E-8	5.178245E-3
6.425000E-8	5.239912E-3
6.430000E-8	5.340976E-3
6.435000E-8	5.478012E-3
6.440000E-8	5.608196E-3
6.445000E-8	5.726389E-3
6.450000E-8	5.854861E-3
6.455000E-8	5.990184E-3
6.460000E-8	6.101525E-3
6.465000E-8	6.175182E-3
6.470000E-8	6.212867E-3
6.475000E-8	6.221432E-3
6.480000E-8	6.192312E-3
6.485000E-8	6.110090E-3
6.490000E-8	5.991897E-3
6.495000E-8	5.880555E-3
6.500000E-8	5.770926E-3
6.505000E-8	5.656158E-3
6.510000E-8	5.587640E-3
6.515000E-8	5.582502E-3
6.520000E-8	5.587640E-3
6.525000E-8	5.604770E-3
6.530000E-8	5.688705E-3
6.535000E-8	5.813750E-3
6.540000E-8	5.897684E-3
6.545000E-8	5.947360E-3
6.550000E-8	5.990184E-3
6.555000E-8	6.003887E-3
6.560000E-8	5.988471E-3
6.565000E-8	5.973054E-3
6.570000E-8	5.959351E-3
6.575000E-8	5.952499E-3
6.580000E-8	5.978193E-3
6.585000E-8	6.029582E-3
6.590000E-8	6.046711E-3
6.595000E-8	6.058702E-3
6.600000E-8	6.096387E-3
6.605000E-8	6.123794E-3
6.610000E-8	6.116942E-3
6.615000E-8	6.106664E-3
6.620000E-8	6.099813E-3
6.625000E-8	6.046711E-3
6.630000E-8	5.947360E-3
6.635000E-8	5.849722E-3
6.640000E-8	5.767500E-3
6.645000E-8	5.675001E-3
6.650000E-8	5.573937E-3
6.655000E-8	5.488289E-3
6.660000E-8	5.431762E-3
6.665000E-8	5.402642E-3
6.670000E-8	5.409494E-3
6.675000E-8	5.467734E-3
6.680000E-8	5.579076E-3
6.685000E-8	5.726389E-3
6.690000E-8	5.894259E-3
6.695000E-8	6.092961E-3
6.700000E-8	6.301941E-3
6.705000E-8	6.466384E-3
6.710000E-8	6.576013E-3
6.715000E-8	6.654808E-3
6.720000E-8	6.704484E-3
6.725000E-8	6.683928E-3
6.730000E-8	6.596568E-3
6.735000E-8	6.486939E-3
6.740000E-8	6.370459E-3
6.745000E-8	6.229997E-3
6.750000E-8	6.067266E-3
6.755000E-8	5.895971E-3
6.760000E-8	5.719538E-3
6.765000E-8	5.568798E-3
6.770000E-8	5.467734E-3
6.775000E-8	5.387225E-3
6.780000E-8	5.313568E-3
6.785000E-8	5.265606E-3
6.790000E-8	5.233060E-3
6.795000E-8	5.217643E-3
6.800000E-8	5.245050E-3
6.805000E-8	5.320420E-3
6.810000E-8	5.414633E-3
6.815000E-8	5.551669E-3
6.820000E-8	5.746945E-3
6.825000E-8	5.931943E-3
6.830000E-8	6.056989E-3
6.835000E-8	6.144349E-3
6.840000E-8	6.223145E-3
6.845000E-8	6.281385E-3
6.850000E-8	6.296802E-3
6.855000E-8	6.253978E-3
6.860000E-8	6.151201E-3
6.865000E-8	6.015878E-3
6.870000E-8	5.865138E-3
6.875000E-8	5.698982E-3
6.880000E-8	5.543104E-3
6.885000E-8	5.433475E-3
6.890000E-8	5.352966E-3
6.895000E-8	5.303291E-3
6.900000E-8	5.305004E-3
6.905000E-8	5.359818E-3
6.910000E-8	5.442040E-3
6.915000E-8	5.543104E-3
6.920000E-8	5.661297E-3
6.925000E-8	5.781204E-3
6.930000E-8	5.890833E-3
6.935000E-8	6.007313E-3
6.940000E-8	6.123794E-3
6.945000E-8	6.224858E-3
6.950000E-8	6.298515E-3
6.955000E-8	6.341338E-3
6.960000E-8	6.327635E-3
6.965000E-8	6.269395E-3
6.970000E-8	6.202590E-3
6.975000E-8	6.122081E-3
6.980000E-8	6.007313E-3
6.985000E-8	5.899397E-3
6.990000E-8	5.830879E-3
6.995000E-8	5.781204E-3
7.000000E-8	5.745232E-3
7.005000E-8	5.740093E-3
7.010000E-8	5.745232E-3
7.015000E-8	5.746945E-3
7.020000E-8	5.767500E-3
7.025000E-8	5.793194E-3
7.030000E-8	5.796620E-3
7.035000E-8	5.808611E-3
7.040000E-8	5.854861E-3
7.045000E-8	5.892546E-3
7.050000E-8	5.890833E-3
7.055000E-8	5.875416E-3
7.060000E-8	5.858287E-3
7.065000E-8	5.827453E-3
7.070000E-8	5.791482E-3
7.075000E-8	5.757223E-3
7.080000E-8	5.714399E-3
7.085000E-8	5.671575E-3
7.090000E-8	5.635603E-3
7.095000E-8	5.589353E-3
7.100000E-8	5.532826E-3
7.105000E-8	5.472873E-3
7.110000E-8	5.431762E-3
7.115000E-8	5.431762E-3
7.120000E-8	5.495141E-3
7.125000E-8	5.608196E-3
7.130000E-8	5.738380E-3
7.135000E-8	5.873703E-3
7.140000E-8	6.015878E-3
7.145000E-8	6.147775E-3
7.150000E-8	6.252265E-3
7.155000E-8	6.336200E-3
7.160000E-8	6.387588E-3
7.165000E-8	6.397866E-3
7.170000E-8	6.389301E-3
7.175000E-8	6.365320E-3
7.180000E-8	6.322496E-3
7.185000E-8	6.269395E-3
7.190000E-8	6.214580E-3
7.195000E-8	6.159766E-3
7.200000E-8	6.111803E-3
7.205000E-8	6.074118E-3
7.210000E-8	6.043285E-3
7.215000E-8	6.038146E-3
7.220000E-8	6.058702E-3
7.225000E-8	6.072405E-3
7.230000E-8	6.058702E-3
7.235000E-8	6.039859E-3
7.240000E-8	6.015878E-3
7.245000E-8	5.985045E-3
7.250000E-8	5.961064E-3
7.255000E-8	5.954212E-3
7.260000E-8	5.938795E-3
7.265000E-8	5.906249E-3
7.270000E-8	5.875416E-3
7.275000E-8	5.863425E-3
7.280000E-8	5.858287E-3
7.285000E-8	5.854861E-3
7.290000E-8	5.861712E-3
7.295000E-8	5.883981E-3
7.300000E-8	5.923379E-3
7.305000E-8	5.949073E-3
7.310000E-8	5.947360E-3
7.315000E-8	5.935369E-3
7.320000E-8	5.931943E-3
7.325000E-8	5.906249E-3
7.330000E-8	5.836018E-3
7.335000E-8	5.750371E-3
7.340000E-8	5.683566E-3
7.345000E-8	5.627038E-3
7.350000E-8	5.563659E-3
7.355000E-8	5.519122E-3
7.360000E-8	5.517410E-3
7.365000E-8	5.544817E-3
7.370000E-8	5.573937E-3
7.375000E-8	5.609909E-3
7.380000E-8	5.681853E-3
7.385000E-8	5.770926E-3
7.390000E-8	5.841157E-3
7.395000E-8	5.873703E-3
7.400000E-8	5.892546E-3
7.405000E-8	5.894259E-3
7.410000E-8	5.870277E-3
7.415000E-8	5.822315E-3
7.420000E-8	5.770926E-3
7.425000E-8	5.710973E-3
7.430000E-8	5.640742E-3
7.435000E-8	5.572224E-3
7.440000E-8	5.503706E-3
7.445000E-8	5.443753E-3
7.450000E-8	5.426623E-3
7.455000E-8	5.460882E-3
7.460000E-8	5.501993E-3
7.465000E-8	5.548243E-3
7.470000E-8	5.621899E-3
7.475000E-8	5.712686E-3
7.480000E-8	5.794907E-3
7.485000E-8	5.873703E-3
7.490000E-8	5.947360E-3
7.495000E-8	6.014165E-3
7.500000E-8	6.067266E-3
7.505000E-8	6.096387E-3
7.510000E-8	6.098100E-3
7.515000E-8	6.080970E-3
7.520000E-8	6.051850E-3
7.525000E-8	6.029582E-3
7.530000E-8	6.024443E-3
7.535000E-8	6.024443E-3
7.540000E-8	6.021017E-3
7.545000E-8	6.026156E-3
7.550000E-8	6.026156E-3
7.555000E-8	6.010739E-3
7.560000E-8	5.983332E-3
7.565000E-8	5.949073E-3
7.570000E-8	5.892546E-3
7.575000E-8	5.812037E-3
7.580000E-8	5.712686E-3
7.585000E-8	5.594492E-3
7.590000E-8	5.481438E-3
7.595000E-8	5.411207E-3
7.600000E-8	5.382086E-3
7.605000E-8	5.400929E-3
7.610000E-8	5.501993E-3
7.615000E-8	5.652733E-3
7.620000E-8	5.793194E-3
7.625000E-8	5.935369E-3
7.630000E-8	6.113516E-3
7.635000E-8	6.293376E-3
7.640000E-8	6.426986E-3
7.645000E-8	6.502356E-3
7.650000E-8	6.540041E-3
7.655000E-8	6.543467E-3
7.660000E-8	6.509208E-3
7.665000E-8	6.432125E-3
7.670000E-8	6.346477E-3
7.675000E-8	6.277959E-3
7.680000E-8	6.211154E-3
7.685000E-8	6.127220E-3
7.690000E-8	6.065554E-3
7.695000E-8	6.029582E-3
7.700000E-8	5.971341E-3
7.705000E-8	5.894259E-3
7.710000E-8	5.836018E-3
7.715000E-8	5.794907E-3
7.720000E-8	5.757223E-3
7.725000E-8	5.738380E-3
7.730000E-8	5.741806E-3
7.735000E-8	5.762361E-3
7.740000E-8	5.822315E-3
7.745000E-8	5.907962E-3
7.750000E-8	5.976480E-3
7.755000E-8	6.024443E-3
7.760000E-8	6.089535E-3
7.765000E-8	6.166618E-3
7.770000E-8	6.214580E-3
7.775000E-8	6.221432E-3
7.780000E-8	6.204302E-3
7.785000E-8	6.158053E-3
7.790000E-8	6.099813E-3
7.795000E-8	6.060415E-3
7.800000E-8	6.024443E-3
7.805000E-8	5.974767E-3
7.810000E-8	5.950786E-3
7.815000E-8	5.966202E-3
7.820000E-8	5.983332E-3
7.825000E-8	5.990184E-3
7.830000E-8	5.995323E-3
7.835000E-8	5.983332E-3
7.840000E-8	5.957638E-3
7.845000E-8	5.937082E-3
7.850000E-8	5.916527E-3
7.855000E-8	5.894259E-3
7.860000E-8	5.890833E-3
7.865000E-8	5.890833E-3
7.870000E-8	5.860000E-3
7.875000E-8	5.820602E-3
7.880000E-8	5.810324E-3
7.885000E-8	5.817176E-3
7.890000E-8	5.827453E-3
7.895000E-8	5.853148E-3
7.900000E-8	5.894259E-3
7.905000E-8	5.943934E-3
7.910000E-8	5.993610E-3
7.915000E-8	6.019304E-3
7.920000E-8	6.039859E-3
7.925000E-8	6.080970E-3
7.930000E-8	6.110090E-3
7.935000E-8	6.077544E-3
7.940000E-8	6.019304E-3
7.945000E-8	5.974767E-3
7.950000E-8	5.918240E-3
7.955000E-8	5.837731E-3
7.960000E-8	5.753797E-3
7.965000E-8	5.698982E-3
7.970000E-8	5.663010E-3
7.975000E-8	5.647594E-3
7.980000E-8	5.668149E-3
7.985000E-8	5.729815E-3
7.990000E-8	5.813750E-3
7.995000E-8	5.907962E-3
8.000000E-8	6.021017E-3
8.005000E-8	6.149488E-3
8.010000E-8	6.281385E-3
8.015000E-8	6.389301E-3
8.020000E-8	6.457819E-3
8.025000E-8	6.493791E-3
8.030000E-8	6.529763E-3
8.035000E-8	6.564022E-3
8.040000E-8	6.564022E-3
8.045000E-8	6.546892E-3
8.050000E-8	6.557170E-3
8.055000E-8	6.581151E-3
8.060000E-8	6.579439E-3
8.065000E-8	6.555457E-3
8.070000E-8	6.533189E-3
8.075000E-8	6.507495E-3
8.080000E-8	6.466384E-3
8.085000E-8	6.408144E-3
8.090000E-8	6.339626E-3
8.095000E-8	6.277959E-3
8.100000E-8	6.224858E-3
8.105000E-8	6.182034E-3
8.110000E-8	6.154627E-3
8.115000E-8	6.149488E-3
8.120000E-8	6.159766E-3
8.125000E-8	6.166618E-3
8.130000E-8	6.164905E-3
8.135000E-8	6.164905E-3
8.140000E-8	6.176895E-3
8.145000E-8	6.197451E-3
8.150000E-8	6.190599E-3
8.155000E-8	6.147775E-3
8.160000E-8	6.084396E-3
8.165000E-8	6.009026E-3
8.170000E-8	5.935369E-3
8.175000E-8	5.860000E-3
8.180000E-8	5.781204E-3
8.185000E-8	5.709260E-3
8.190000E-8	5.664723E-3
8.195000E-8	5.652733E-3
8.200000E-8	5.652733E-3
8.205000E-8	5.654446E-3
8.210000E-8	5.681853E-3
8.215000E-8	5.740093E-3
8.220000E-8	5.794907E-3
8.225000E-8	5.825741E-3
8.230000E-8	5.865138E-3
8.235000E-8	5.930230E-3
8.240000E-8	5.973054E-3
8.245000E-8	5.991897E-3
8.250000E-8	6.039859E-3
8.255000E-8	6.111803E-3
8.260000E-8	6.175182E-3
8.265000E-8	6.248839E-3
8.270000E-8	6.341338E-3
8.275000E-8	6.420134E-3
8.280000E-8	6.466384E-3
8.285000E-8	6.497217E-3
8.290000E-8	6.517772E-3
8.295000E-8	6.528050E-3
8.300000E-8	6.522911E-3
8.305000E-8	6.474949E-3
8.310000E-8	6.384162E-3
8.315000E-8	6.274533E-3
8.320000E-8	6.151201E-3
8.325000E-8	6.019304E-3
8.330000E-8	5.892546E-3
8.335000E-8	5.776065E-3
8.340000E-8	5.671575E-3
8.345000E-8	5.597918E-3
8.350000E-8	5.572224E-3
8.355000E-8	5.589353E-3
8.360000E-8	5.642455E-3
8.365000E-8	5.722964E-3
8.370000E-8	5.801759E-3
8.375000E-8	5.860000E-3
8.380000E-8	5.909675E-3
8.385000E-8	5.942221E-3
8.390000E-8	5.952499E-3
8.395000E-8	5.945647E-3
8.400000E-8	5.901110E-3
8.405000E-8	5.805185E-3
8.410000E-8	5.685279E-3
8.415000E-8	5.555094E-3
8.420000E-8	5.400929E-3
8.425000E-8	5.262180E-3
8.430000E-8	5.200514E-3
8.435000E-8	5.195375E-3
8.440000E-8	5.214217E-3
8.445000E-8	5.275884E-3
8.450000E-8	5.407781E-3
8.455000E-8	5.585928E-3
8.460000E-8	5.786343E-3
8.465000E-8	5.997036E-3
8.470000E-8	6.194025E-3
8.475000E-8	6.361894E-3
8.480000E-8	6.497217E-3
8.485000E-8	6.560596E-3
8.490000E-8	6.548605E-3
8.495000E-8	6.505782E-3
8.500000E-8	6.444115E-3
8.505000E-8	6.349903E-3
8.510000E-8	6.233423E-3
8.515000E-8	6.130646E-3
8.520000E-8	6.038146E-3
8.525000E-8	5.950786E-3
8.530000E-8	5.901110E-3
8.535000E-8	5.890833E-3
8.540000E-8	5.901110E-3
8.545000E-8	5.928518E-3
8.550000E-8	5.967915E-3
8.555000E-8	6.002174E-3
8.560000E-8	6.039859E-3
8.565000E-8	6.077544E-3
8.570000E-8	6.106664E-3
8.575000E-8	6.132359E-3
8.580000E-8	6.144349E-3
8.585000E-8	6.127220E-3
8.590000E-8	6.094674E-3
8.595000E-8	6.080970E-3
8.600000E-8	6.072405E-3
8.605000E-8	6.050137E-3
8.610000E-8	6.041572E-3
8.615000E-8	6.062128E-3
8.620000E-8	6.087822E-3
8.625000E-8	6.094674E-3
8.630000E-8	6.113516E-3
8.635000E-8	6.146062E-3
8.640000E-8	6.164905E-3
8.645000E-8	6.137497E-3
8.650000E-8	6.079257E-3
8.655000E-8	6.012452E-3
8.660000E-8	5.933656E-3
8.665000E-8	5.836018E-3
8.670000E-8	5.740093E-3
8.675000E-8	5.685279E-3
8.680000E-8	5.666436E-3
8.685000E-8	5.676714E-3
8.690000E-8	5.721251E-3
8.695000E-8	5.791482E-3
8.700000E-8	5.858287E-3
8.705000E-8	5.935369E-3
8.710000E-8	6.043285E-3
8.715000E-8	6.128933E-3
8.720000E-8	6.149488E-3
8.725000E-8	6.142636E-3
8.730000E-8	6.135784E-3
8.735000E-8	6.103238E-3
8.740000E-8	6.046711E-3
8.745000E-8	5.976480E-3
8.750000E-8	5.909675E-3
8.755000E-8	5.880555E-3
8.760000E-8	5.909675E-3
8.765000E-8	5.971341E-3
8.770000E-8	6.056989E-3
8.775000E-8	6.185460E-3
8.780000E-8	6.325922E-3
8.785000E-8	6.435551E-3
8.790000E-8	6.522911E-3
8.795000E-8	6.596568E-3
8.800000E-8	6.617123E-3
8.805000E-8	6.579439E-3
8.810000E-8	6.524624E-3
8.815000E-8	6.456106E-3
8.820000E-8	6.344764E-3
8.825000E-8	6.200877E-3
8.830000E-8	6.062128E-3
8.835000E-8	5.961064E-3
8.840000E-8	5.899397E-3
8.845000E-8	5.868564E-3
8.850000E-8	5.870277E-3
8.855000E-8	5.901110E-3
8.860000E-8	5.954212E-3
8.865000E-8	5.998748E-3
8.870000E-8	6.021017E-3
8.875000E-8	6.039859E-3
8.880000E-8	6.058702E-3
8.885000E-8	6.043285E-3
8.890000E-8	5.978193E-3
8.895000E-8	5.895971E-3
8.900000E-8	5.824028E-3
8.905000E-8	5.757223E-3
8.910000E-8	5.693843E-3
8.915000E-8	5.652733E-3
8.920000E-8	5.645881E-3
8.925000E-8	5.657871E-3
8.930000E-8	5.671575E-3
8.935000E-8	5.697269E-3
8.940000E-8	5.745232E-3
8.945000E-8	5.784630E-3
8.950000E-8	5.770926E-3
8.955000E-8	5.722964E-3
8.960000E-8	5.690417E-3
8.965000E-8	5.651020E-3
8.970000E-8	5.563659E-3
8.975000E-8	5.462595E-3
8.980000E-8	5.404355E-3
8.985000E-8	5.370096E-3
8.990000E-8	5.325559E-3
8.995000E-8	5.299865E-3
9.000000E-8	5.332411E-3
9.005000E-8	5.411207E-3
9.010000E-8	5.496854E-3
9.015000E-8	5.584215E-3
9.020000E-8	5.695556E-3
9.025000E-8	5.825741E-3
9.030000E-8	5.933656E-3
9.035000E-8	5.991897E-3
9.040000E-8	6.022730E-3
9.045000E-8	6.039859E-3
9.050000E-8	6.036433E-3
9.055000E-8	6.002174E-3
9.060000E-8	5.950786E-3
9.065000E-8	5.883981E-3
9.070000E-8	5.801759E-3
9.075000E-8	5.714399E-3
9.080000E-8	5.635603E-3
9.085000E-8	5.546530E-3
9.090000E-8	5.435188E-3
9.095000E-8	5.313568E-3
9.100000E-8	5.219356E-3
9.105000E-8	5.150838E-3
9.110000E-8	5.092598E-3
9.115000E-8	5.032645E-3
9.120000E-8	4.984682E-3
9.125000E-8	4.955562E-3
9.130000E-8	4.935006E-3
9.135000E-8	4.914451E-3
9.140000E-8	4.919590E-3
9.145000E-8	4.950423E-3
9.150000E-8	4.969265E-3
9.155000E-8	4.982969E-3
9.160000E-8	5.037783E-3
9.165000E-8	5.123431E-3
9.170000E-8	5.198801E-3
9.175000E-8	5.279309E-3
9.180000E-8	5.380374E-3
9.185000E-8	5.459169E-3
9.190000E-8	5.503706E-3
9.195000E-8	5.558520E-3
9.200000E-8	5.620187E-3
9.205000E-8	5.675001E-3
9.210000E-8	5.738380E-3
9.215000E-8	5.812037E-3
9.220000E-8	5.863425E-3
9.225000E-8	5.887407E-3
9.230000E-8	5.892546E-3
9.235000E-8	5.887407E-3
9.240000E-8	5.887407E-3
9.245000E-8	5.906249E-3
9.250000E-8	5.913101E-3
9.255000E-8	5.887407E-3
9.260000E-8	5.851435E-3
9.265000E-8	5.815463E-3
9.270000E-8	5.779491E-3
9.275000E-8	5.752084E-3
9.280000E-8	5.733241E-3
9.285000E-8	5.722964E-3
9.290000E-8	5.753797E-3
9.295000E-8	5.834305E-3
9.300000E-8	5.926805E-3
9.305000E-8	6.007313E-3
9.310000E-8	6.082683E-3
9.315000E-8	6.151201E-3
9.320000E-8	6.195738E-3
9.325000E-8	6.228284E-3
9.330000E-8	6.260830E-3
9.335000E-8	6.281385E-3
9.340000E-8	6.276246E-3
9.345000E-8	6.247126E-3
9.350000E-8	6.212867E-3
9.355000E-8	6.183747E-3
9.360000E-8	6.159766E-3
9.365000E-8	6.118655E-3
9.370000E-8	6.053563E-3
9.375000E-8	5.997036E-3
9.380000E-8	5.952499E-3
9.385000E-8	5.904536E-3
9.390000E-8	5.854861E-3
9.395000E-8	5.810324E-3
9.400000E-8	5.764074E-3
9.405000E-8	5.729815E-3
9.410000E-8	5.712686E-3
9.415000E-8	5.685279E-3
9.420000E-8	5.645881E-3
9.425000E-8	5.630464E-3
9.430000E-8	5.632177E-3
9.435000E-8	5.618474E-3
9.440000E-8	5.601344E-3
9.445000E-8	5.582502E-3
9.450000E-8	5.560233E-3
9.455000E-8	5.532826E-3
9.460000E-8	5.522548E-3
9.465000E-8	5.517410E-3
9.470000E-8	5.503706E-3
9.475000E-8	5.501993E-3
9.480000E-8	5.519122E-3
9.485000E-8	5.524261E-3
9.490000E-8	5.522548E-3
9.495000E-8	5.555094E-3
9.500000E-8	5.596205E-3
9.505000E-8	5.592779E-3
9.510000E-8	5.536252E-3
9.515000E-8	5.476299E-3
9.520000E-8	5.421484E-3
9.525000E-8	5.340976E-3
9.530000E-8	5.245050E-3
9.535000E-8	5.197088E-3
9.540000E-8	5.215930E-3
9.545000E-8	5.258754E-3
9.550000E-8	5.310143E-3
9.555000E-8	5.414633E-3
9.560000E-8	5.567085E-3
9.565000E-8	5.716112E-3
9.570000E-8	5.836018E-3
9.575000E-8	5.949073E-3
9.580000E-8	6.043285E-3
9.585000E-8	6.092961E-3
9.590000E-8	6.096387E-3
9.595000E-8	6.067266E-3
9.600000E-8	6.010739E-3
9.605000E-8	5.925092E-3
9.610000E-8	5.824028E-3
9.615000E-8	5.726389E-3
9.620000E-8	5.637316E-3
9.625000E-8	5.567085E-3
9.630000E-8	5.529400E-3
9.635000E-8	5.524261E-3
9.640000E-8	5.536252E-3
9.645000E-8	5.567085E-3
9.650000E-8	5.621899E-3
9.655000E-8	5.690417E-3
9.660000E-8	5.750371E-3
9.665000E-8	5.798333E-3
9.670000E-8	5.842870E-3
9.675000E-8	5.894259E-3
9.680000E-8	5.961064E-3
9.685000E-8	6.050137E-3
9.690000E-8	6.144349E-3
9.695000E-8	6.236849E-3
9.700000E-8	6.327635E-3
9.705000E-8	6.416708E-3
9.710000E-8	6.495504E-3
9.715000E-8	6.564022E-3
9.720000E-8	6.606846E-3
9.725000E-8	6.603420E-3
9.730000E-8	6.548605E-3
9.735000E-8	6.450967E-3
9.740000E-8	6.329348E-3
9.745000E-8	6.190599E-3
9.750000E-8	6.053563E-3
9.755000E-8	5.928518E-3
9.760000E-8	5.812037E-3
9.765000E-8	5.709260E-3
9.770000E-8	5.637316E-3
9.775000E-8	5.611622E-3
9.780000E-8	5.628751E-3
9.785000E-8	5.671575E-3
9.790000E-8	5.722964E-3
9.795000E-8	5.748658E-3
9.800000E-8	5.750371E-3
9.805000E-8	5.738380E-3
9.810000E-8	5.692130E-3
9.815000E-8	5.601344E-3
9.820000E-8	5.512271E-3
9.825000E-8	5.450604E-3
9.830000E-8	5.407781E-3
9.835000E-8	5.394077E-3
9.840000E-8	5.423197E-3
9.845000E-8	5.471160E-3
9.850000E-8	5.515697E-3
9.855000E-8	5.580789E-3
9.860000E-8	5.676714E-3
9.865000E-8	5.774352E-3
9.870000E-8	5.856574E-3
9.875000E-8	5.928518E-3
9.880000E-8	5.985045E-3
9.885000E-8	6.007313E-3
9.890000E-8	5.979906E-3
9.895000E-8	5.913101E-3
9.900000E-8	5.837731E-3
9.905000E-8	5.770926E-3
9.910000E-8	5.726389E-3
9.915000E-8	5.717825E-3
9.920000E-8	5.741806E-3
9.925000E-8	5.789769E-3
9.930000E-8	5.854861E-3
9.935000E-8	5.926805E-3
9.940000E-8	6.002174E-3
9.945000E-8	6.086109E-3
9.950000E-8	6.183747E-3
9.955000E-8	6.279672E-3
9.960000E-8	6.343051E-3
9.965000E-8	6.351616E-3
9.970000E-8	6.305367E-3
9.975000E-8	6.221432E-3
9.980000E-8	6.110090E-3
9.985000E-8	5.979906E-3
9.990000E-8	5.858287E-3
9.995000E-8	5.762361E-3
1.000000E-7	5.685279E-3
1.000500E-7	5.615048E-3
1.001000E-7	5.575650E-3
1.001500E-7	5.570511E-3
1.002000E-7	5.579076E-3
1.002500E-7	5.592779E-3
1.003000E-7	5.623612E-3
1.003500E-7	5.666436E-3
1.004000E-7	5.683566E-3
1.004500E-7	5.675001E-3
1.005000E-7	5.659584E-3
1.005500E-7	5.642455E-3
1.006000E-7	5.608196E-3
1.006500E-7	5.567085E-3
1.007000E-7	5.536252E-3
1.007500E-7	5.507132E-3
1.008000E-7	5.478012E-3
1.008500E-7	5.464308E-3
1.009000E-7	5.471160E-3
1.009500E-7	5.491715E-3
1.010000E-7	5.539678E-3
1.010500E-7	5.613335E-3
1.011000E-7	5.675001E-3
1.011500E-7	5.733241E-3
1.012000E-7	5.796620E-3
1.012500E-7	5.836018E-3
1.013000E-7	5.827453E-3
1.013500E-7	5.808611E-3
1.014000E-7	5.791482E-3
1.014500E-7	5.760648E-3
1.015000E-7	5.726389E-3
1.015500E-7	5.695556E-3
1.016000E-7	5.657871E-3
1.016500E-7	5.615048E-3
1.017000E-7	5.589353E-3
1.017500E-7	5.587640E-3
1.018000E-7	5.606483E-3
1.018500E-7	5.633890E-3
1.019000E-7	5.645881E-3
1.019500E-7	5.656158E-3
1.020000E-7	5.690417E-3
1.020500E-7	5.733241E-3
1.021000E-7	5.772639E-3
1.021500E-7	5.827453E-3
1.022000E-7	5.901110E-3
1.022500E-7	5.966202E-3
1.023000E-7	6.021017E-3
1.023500E-7	6.079257E-3
1.024000E-7	6.122081E-3
1.024500E-7	6.125507E-3
1.025000E-7	6.101525E-3
1.025500E-7	6.082683E-3
1.026000E-7	6.065554E-3
1.026500E-7	6.021017E-3
1.027000E-7	5.942221E-3
1.027500E-7	5.856574E-3
1.028000E-7	5.781204E-3
1.028500E-7	5.714399E-3
1.029000E-7	5.663010E-3
1.029500E-7	5.633890E-3
1.030000E-7	5.623612E-3
1.030500E-7	5.625325E-3
1.031000E-7	5.632177E-3
1.031500E-7	5.645881E-3
1.032000E-7	5.675001E-3
1.032500E-7	5.721251E-3
1.033000E-7	5.769213E-3
1.033500E-7	5.813750E-3
1.034000E-7	5.849722E-3
1.034500E-7	5.875416E-3
1.035000E-7	5.882268E-3
1.035500E-7	5.868564E-3
1.036000E-7	5.841157E-3
1.036500E-7	5.808611E-3
1.037000E-7	5.765787E-3
1.037500E-7	5.704121E-3
1.038000E-7	5.656158E-3
1.038500E-7	5.659584E-3
1.039000E-7	5.681853E-3
1.039500E-7	5.704121E-3
1.040000E-7	5.741806E-3
1.040500E-7	5.808611E-3
1.041000E-7	5.860000E-3
1.041500E-7	5.878842E-3
1.042000E-7	5.889120E-3
1.042500E-7	5.895971E-3
1.043000E-7	5.880555E-3
1.043500E-7	5.839444E-3
1.044000E-7	5.784630E-3
1.044500E-7	5.731528E-3
1.045000E-7	5.681853E-3
1.045500E-7	5.644168E-3
1.046000E-7	5.620187E-3
1.046500E-7	5.606483E-3
1.047000E-7	5.596205E-3
1.047500E-7	5.580789E-3
1.048000E-7	5.558520E-3
1.048500E-7	5.531113E-3
1.049000E-7	5.505419E-3
1.049500E-7	5.478012E-3
1.050000E-7	5.448892E-3
1.050500E-7	5.428336E-3
1.051000E-7	5.407781E-3
1.051500E-7	5.382086E-3
1.052000E-7	5.366670E-3
1.052500E-7	5.371809E-3
1.053000E-7	5.404355E-3
1.053500E-7	5.474586E-3
1.054000E-7	5.565372E-3
1.054500E-7	5.637316E-3
1.055000E-7	5.669862E-3
1.055500E-7	5.669862E-3
1.056000E-7	5.649307E-3
1.056500E-7	5.616761E-3
1.057000E-7	5.575650E-3
1.057500E-7	5.536252E-3
1.058000E-7	5.498567E-3
1.058500E-7	5.450604E-3
1.059000E-7	5.395790E-3
1.059500E-7	5.363244E-3
1.060000E-7	5.351253E-3
1.060500E-7	5.335837E-3
1.061000E-7	5.322133E-3
1.061500E-7	5.346115E-3
1.062000E-7	5.387225E-3
1.062500E-7	5.404355E-3
1.063000E-7	5.406068E-3
1.063500E-7	5.409494E-3
1.064000E-7	5.407781E-3
1.064500E-7	5.392364E-3
1.065000E-7	5.368383E-3
1.065500E-7	5.351253E-3
1.066000E-7	5.352966E-3
1.066500E-7	5.358105E-3
1.067000E-7	5.346115E-3
1.067500E-7	5.351253E-3
1.068000E-7	5.382086E-3
1.068500E-7	5.385512E-3
1.069000E-7	5.368383E-3
1.069500E-7	5.385512E-3
1.070000E-7	5.411207E-3
1.070500E-7	5.388938E-3
1.071000E-7	5.347827E-3
1.071500E-7	5.342689E-3
1.072000E-7	5.351253E-3
1.072500E-7	5.352966E-3
1.073000E-7	5.368383E-3
1.073500E-7	5.392364E-3
1.074000E-7	5.419771E-3
1.074500E-7	5.469447E-3
1.075000E-7	5.543104E-3
1.075500E-7	5.599631E-3
1.076000E-7	5.615048E-3
1.076500E-7	5.620187E-3
1.077000E-7	5.632177E-3
1.077500E-7	5.659584E-3
1.078000E-7	5.686992E-3
1.078500E-7	5.705834E-3
1.079000E-7	5.704121E-3
1.079500E-7	5.704121E-3
1.080000E-7	5.704121E-3
1.080500E-7	5.683566E-3
1.081000E-7	5.640742E-3
1.081500E-7	5.591066E-3
1.082000E-7	5.532826E-3
1.082500E-7	5.454030E-3
1.083000E-7	5.382086E-3
1.083500E-7	5.342689E-3
1.084000E-7	5.318707E-3
1.084500E-7	5.310143E-3
1.085000E-7	5.318707E-3
1.085500E-7	5.334124E-3
1.086000E-7	5.344402E-3
1.086500E-7	5.368383E-3
1.087000E-7	5.409494E-3
1.087500E-7	5.452317E-3
1.088000E-7	5.503706E-3
1.088500E-7	5.549956E-3
1.089000E-7	5.568798E-3
1.089500E-7	5.567085E-3
1.090000E-7	5.572224E-3
1.090500E-7	5.580789E-3
1.091000E-7	5.579076E-3
1.091500E-7	5.591066E-3
1.092000E-7	5.632177E-3
1.092500E-7	5.681853E-3
1.093000E-7	5.741806E-3
1.093500E-7	5.825741E-3
1.094000E-7	5.911388E-3
1.094500E-7	5.961064E-3
1.095000E-7	5.991897E-3
1.095500E-7	6.003887E-3
1.096000E-7	5.971341E-3
1.096500E-7	5.918240E-3
1.097000E-7	5.894259E-3
1.097500E-7	5.875416E-3
1.098000E-7	5.827453E-3
1.098500E-7	5.789769E-3
1.099000E-7	5.791482E-3
1.099500E-7	5.788056E-3
1.100000E-7	5.789769E-3
1.100500E-7	5.813750E-3
1.101000E-7	5.834305E-3
1.101500E-7	5.834305E-3
1.102000E-7	5.827453E-3
1.102500E-7	5.808611E-3
1.103000E-7	5.760648E-3
1.103500E-7	5.705834E-3
1.104000E-7	5.651020E-3
1.104500E-7	5.582502E-3
1.105000E-7	5.508845E-3
1.105500E-7	5.460882E-3
1.106000E-7	5.436901E-3
1.106500E-7	5.431762E-3
1.107000E-7	5.448892E-3
1.107500E-7	5.472873E-3
1.108000E-7	5.491715E-3
1.108500E-7	5.503706E-3
1.109000E-7	5.505419E-3
1.109500E-7	5.496854E-3
1.110000E-7	5.498567E-3
1.110500E-7	5.512271E-3
1.111000E-7	5.515697E-3
1.111500E-7	5.522548E-3
1.112000E-7	5.551669E-3
1.112500E-7	5.565372E-3
1.113000E-7	5.534539E-3
1.113500E-7	5.481438E-3
1.114000E-7	5.433475E-3
1.114500E-7	5.380374E-3
1.115000E-7	5.315281E-3
1.115500E-7	5.257041E-3
1.116000E-7	5.215930E-3
1.116500E-7	5.169681E-3
1.117000E-7	5.130283E-3
1.117500E-7	5.125144E-3
1.118000E-7	5.128570E-3
1.118500E-7	5.130283E-3
1.119000E-7	5.169681E-3
1.119500E-7	5.250189E-3
1.120000E-7	5.311855E-3
1.120500E-7	5.337550E-3
1.121000E-7	5.368383E-3
1.121500E-7	5.411207E-3
1.122000E-7	5.431762E-3
1.122500E-7	5.424910E-3
1.123000E-7	5.388938E-3
1.123500E-7	5.346115E-3
1.124000E-7	5.310143E-3
1.124500E-7	5.265606E-3
1.125000E-7	5.203940E-3
1.125500E-7	5.152551E-3
1.126000E-7	5.118292E-3
1.126500E-7	5.087459E-3
1.127000E-7	5.072042E-3
1.127500E-7	5.090885E-3
1.128000E-7	5.121718E-3
1.128500E-7	5.140560E-3
1.129000E-7	5.164542E-3
1.129500E-7	5.195375E-3
1.130000E-7	5.215930E-3
1.130500E-7	5.227921E-3
1.131000E-7	5.243337E-3
1.131500E-7	5.277596E-3
1.132000E-7	5.337550E-3
1.132500E-7	5.411207E-3
1.133000E-7	5.481438E-3
1.133500E-7	5.556807E-3
1.134000E-7	5.630464E-3
1.134500E-7	5.671575E-3
1.135000E-7	5.668149E-3
1.135500E-7	5.652733E-3
1.136000E-7	5.639029E-3
1.136500E-7	5.601344E-3
1.137000E-7	5.517410E-3
1.137500E-7	5.414633E-3
1.138000E-7	5.318707E-3
1.138500E-7	5.226208E-3
1.139000E-7	5.123431E-3
1.139500E-7	5.010376E-3
1.140000E-7	4.909312E-3
1.140500E-7	4.861350E-3
1.141000E-7	4.863063E-3
1.141500E-7	4.888757E-3
1.142000E-7	4.923016E-3
1.142500E-7	4.976117E-3
1.143000E-7	5.048061E-3
1.143500E-7	5.140560E-3
1.144000E-7	5.246763E-3
1.144500E-7	5.334124E-3
1.145000E-7	5.399216E-3
1.145500E-7	5.471160E-3
1.146000E-7	5.544817E-3
1.146500E-7	5.589353E-3
1.147000E-7	5.623612E-3
1.147500E-7	5.663010E-3
1.148000E-7	5.685279E-3
1.148500E-7	5.717825E-3
1.149000E-7	5.774352E-3
1.149500E-7	5.815463E-3
1.150000E-7	5.822315E-3
1.150500E-7	5.834305E-3
1.151000E-7	5.836018E-3
1.151500E-7	5.793194E-3
1.152000E-7	5.714399E-3
1.152500E-7	5.627038E-3
1.153000E-7	5.529400E-3
1.153500E-7	5.443753E-3
1.154000E-7	5.387225E-3
1.154500E-7	5.344402E-3
1.155000E-7	5.344402E-3
1.155500E-7	5.402642E-3
1.156000E-7	5.467734E-3
1.156500E-7	5.525974E-3
1.157000E-7	5.621899E-3
1.157500E-7	5.734954E-3
1.158000E-7	5.808611E-3
1.158500E-7	5.834305E-3
1.159000E-7	5.815463E-3
1.159500E-7	5.748658E-3
1.160000E-7	5.644168E-3
1.160500E-7	5.507132E-3
1.161000E-7	5.313568E-3
1.161500E-7	5.099450E-3
1.162000E-7	4.933294E-3
1.162500E-7	4.811674E-3
1.163000E-7	4.727740E-3
1.163500E-7	4.703758E-3
1.164000E-7	4.750008E-3
1.164500E-7	4.844220E-3
1.165000E-7	4.976117E-3
1.165500E-7	5.126857E-3
1.166000E-7	5.260467E-3
1.166500E-7	5.370096E-3
1.167000E-7	5.488289E-3
1.167500E-7	5.591066E-3
1.168000E-7	5.649307E-3
1.168500E-7	5.686992E-3
1.169000E-7	5.712686E-3
1.169500E-7	5.702408E-3
1.170000E-7	5.659584E-3
1.170500E-7	5.618474E-3
1.171000E-7	5.558520E-3
1.171500E-7	5.483151E-3
1.172000E-7	5.431762E-3
1.172500E-7	5.418058E-3
1.173000E-7	5.418058E-3
1.173500E-7	5.433475E-3
1.174000E-7	5.466021E-3
1.174500E-7	5.503706E-3
1.175000E-7	5.534539E-3
1.175500E-7	5.601344E-3
1.176000E-7	5.704121E-3
1.176500E-7	5.800046E-3
1.177000E-7	5.877129E-3
1.177500E-7	5.964489E-3
1.178000E-7	6.043285E-3
1.178500E-7	6.094674E-3
1.179000E-7	6.128933E-3
1.179500E-7	6.140923E-3
1.180000E-7	6.118655E-3
1.180500E-7	6.070692E-3
1.181000E-7	6.014165E-3
1.181500E-7	5.967915E-3
1.182000E-7	5.955925E-3
1.182500E-7	5.959351E-3
1.183000E-7	5.961064E-3
1.183500E-7	5.976480E-3
1.184000E-7	6.009026E-3
1.184500E-7	6.022730E-3
1.185000E-7	5.991897E-3
1.185500E-7	5.949073E-3
1.186000E-7	5.899397E-3
1.186500E-7	5.820602E-3
1.187000E-7	5.714399E-3
1.187500E-7	5.604770E-3
1.188000E-7	5.505419E-3
1.188500E-7	5.423197E-3
1.189000E-7	5.368383E-3
1.189500E-7	5.335837E-3
1.190000E-7	5.337550E-3
1.190500E-7	5.371809E-3
1.191000E-7	5.426623E-3
1.191500E-7	5.493428E-3
1.192000E-7	5.563659E-3
1.192500E-7	5.615048E-3
1.193000E-7	5.632177E-3
1.193500E-7	5.630464E-3
1.194000E-7	5.625325E-3
1.194500E-7	5.599631E-3
1.195000E-7	5.543104E-3
1.195500E-7	5.478012E-3
1.196000E-7	5.416345E-3
1.196500E-7	5.352966E-3
1.197000E-7	5.303291E-3
1.197500E-7	5.315281E-3
1.198000E-7	5.387225E-3
1.198500E-7	5.457456E-3
1.199000E-7	5.512271E-3
1.199500E-7	5.579076E-3
1.200000E-7	5.635603E-3
1.200500E-7	5.654446E-3
1.201000E-7	5.649307E-3
1.201500E-7	5.632177E-3
1.202000E-7	5.563659E-3
1.202500E-7	5.450604E-3
1.203000E-7	5.327272E-3
1.203500E-7	5.203940E-3
1.204000E-7	5.099450E-3
1.204500E-7	5.048061E-3
1.205000E-7	5.034358E-3
1.205500E-7	5.025793E-3
1.206000E-7	5.036071E-3
1.206500E-7	5.084033E-3
1.207000E-7	5.147412E-3
1.207500E-7	5.209078E-3
1.208000E-7	5.262180E-3
1.208500E-7	5.293013E-3
1.209000E-7	5.296439E-3
1.209500E-7	5.293013E-3
1.210000E-7	5.289587E-3
1.210500E-7	5.260467E-3
1.211000E-7	5.202227E-3
1.211500E-7	5.150838E-3
1.212000E-7	5.128570E-3
1.212500E-7	5.121718E-3
1.213000E-7	5.121718E-3
1.213500E-7	5.150838E-3
1.214000E-7	5.210791E-3
1.214500E-7	5.275884E-3
1.215000E-7	5.342689E-3
1.215500E-7	5.412920E-3
1.216000E-7	5.460882E-3
1.216500E-7	5.464308E-3
1.217000E-7	5.431762E-3
1.217500E-7	5.382086E-3
1.218000E-7	5.328985E-3
1.218500E-7	5.294726E-3
1.219000E-7	5.281022E-3
1.219500E-7	5.284448E-3
1.220000E-7	5.294726E-3
1.220500E-7	5.311855E-3
1.221000E-7	5.352966E-3
1.221500E-7	5.409494E-3
1.222000E-7	5.462595E-3
1.222500E-7	5.490002E-3
1.223000E-7	5.507132E-3
1.223500E-7	5.508845E-3
1.224000E-7	5.471160E-3
1.224500E-7	5.394077E-3
1.225000E-7	5.289587E-3
1.225500E-7	5.186810E-3
1.226000E-7	5.094311E-3
1.226500E-7	5.006950E-3
1.227000E-7	4.924729E-3
1.227500E-7	4.876766E-3
1.228000E-7	4.876766E-3
1.228500E-7	4.892183E-3
1.229000E-7	4.912738E-3
1.229500E-7	4.960701E-3
1.230000E-7	5.042922E-3
1.230500E-7	5.138848E-3
1.231000E-7	5.227921E-3
1.231500E-7	5.320420E-3
1.232000E-7	5.430049E-3
1.232500E-7	5.553381E-3
1.233000E-7	5.669862E-3
1.233500E-7	5.757223E-3
1.234000E-7	5.812037E-3
1.234500E-7	5.842870E-3
1.235000E-7	5.836018E-3
1.235500E-7	5.786343E-3
1.236000E-7	5.716112E-3
1.236500E-7	5.644168E-3
1.237000E-7	5.558520E-3
1.237500E-7	5.459169E-3
1.238000E-7	5.366670E-3
1.238500E-7	5.289587E-3
1.239000E-7	5.226208E-3
1.239500E-7	5.179958E-3
1.240000E-7	5.147412E-3
1.240500E-7	5.133709E-3
1.241000E-7	5.133709E-3
1.241500E-7	5.135422E-3
1.242000E-7	5.135422E-3
1.242500E-7	5.135422E-3
1.243000E-7	5.125144E-3
1.243500E-7	5.113153E-3
1.244000E-7	5.126857E-3
1.244500E-7	5.152551E-3
1.245000E-7	5.181671E-3
1.245500E-7	5.238199E-3
1.246000E-7	5.316994E-3
1.246500E-7	5.376948E-3
1.247000E-7	5.438614E-3
1.247500E-7	5.517410E-3
1.248000E-7	5.580789E-3
1.248500E-7	5.615048E-3
1.249000E-7	5.642455E-3
1.249500E-7	5.647594E-3
1.250000E-7	5.601344E-3
1.250500E-7	5.534539E-3
1.251000E-7	5.464308E-3
1.251500E-7	5.364957E-3
1.252000E-7	5.255328E-3
1.252500E-7	5.186810E-3
1.253000E-7	5.149125E-3
1.253500E-7	5.109727E-3
1.254000E-7	5.092598E-3
1.254500E-7	5.131996E-3
1.255000E-7	5.214217E-3
1.255500E-7	5.335837E-3
1.256000E-7	5.476299E-3
1.256500E-7	5.603057E-3
1.257000E-7	5.719538E-3
1.257500E-7	5.846296E-3
1.258000E-7	5.955925E-3
1.258500E-7	6.009026E-3
1.259000E-7	6.012452E-3
1.259500E-7	5.983332E-3
1.260000E-7	5.909675E-3
1.260500E-7	5.788056E-3
1.261000E-7	5.649307E-3
1.261500E-7	5.512271E-3
1.262000E-7	5.366670E-3
1.262500E-7	5.234773E-3
1.263000E-7	5.142273E-3
1.263500E-7	5.087459E-3
1.264000E-7	5.066904E-3
1.264500E-7	5.089172E-3
1.265000E-7	5.133709E-3
1.265500E-7	5.198801E-3
1.266000E-7	5.299865E-3
1.266500E-7	5.407781E-3
1.267000E-7	5.488289E-3
1.267500E-7	5.549956E-3
1.268000E-7	5.609909E-3
1.268500E-7	5.652733E-3
1.269000E-7	5.664723E-3
1.269500E-7	5.656158E-3
1.270000E-7	5.620187E-3
1.270500E-7	5.537965E-3
1.271000E-7	5.442040E-3
1.271500E-7	5.364957E-3
1.272000E-7	5.303291E-3
1.272500E-7	5.253615E-3
1.273000E-7	5.239912E-3
1.273500E-7	5.265606E-3
1.274000E-7	5.306717E-3
1.274500E-7	5.354679E-3
1.275000E-7	5.421484E-3
1.275500E-7	5.536252E-3
1.276000E-7	5.693843E-3
1.276500E-7	5.846296E-3
1.277000E-7	5.971341E-3
1.277500E-7	6.091248E-3
1.278000E-7	6.207728E-3
1.278500E-7	6.276246E-3
1.279000E-7	6.291663E-3
1.279500E-7	6.279672E-3
1.280000E-7	6.240274E-3
1.280500E-7	6.152914E-3
1.281000E-7	6.039859E-3
1.281500E-7	5.935369E-3
1.282000E-7	5.834305E-3
1.282500E-7	5.738380E-3
1.283000E-7	5.659584E-3
1.283500E-7	5.608196E-3
1.284000E-7	5.579076E-3
1.284500E-7	5.568798E-3
1.285000E-7	5.579076E-3
1.285500E-7	5.608196E-3
1.286000E-7	5.632177E-3
1.286500E-7	5.630464E-3
1.287000E-7	5.604770E-3
1.287500E-7	5.577363E-3
1.288000E-7	5.556807E-3
1.288500E-7	5.548243E-3
1.289000E-7	5.549956E-3
1.289500E-7	5.553381E-3
1.290000E-7	5.539678E-3
1.290500E-7	5.524261E-3
1.291000E-7	5.527687E-3
1.291500E-7	5.527687E-3
1.292000E-7	5.501993E-3
1.292500E-7	5.462595E-3
1.293000E-7	5.424910E-3
1.293500E-7	5.373522E-3
1.294000E-7	5.316994E-3
1.294500E-7	5.281022E-3
1.295000E-7	5.255328E-3
1.295500E-7	5.219356E-3
1.296000E-7	5.190236E-3
1.296500E-7	5.164542E-3
1.297000E-7	5.128570E-3
1.297500E-7	5.099450E-3
1.298000E-7	5.092598E-3
1.298500E-7	5.101163E-3
1.299000E-7	5.128570E-3
1.299500E-7	5.169681E-3
1.300000E-7	5.205653E-3
1.300500E-7	5.241625E-3
1.301000E-7	5.291300E-3
1.301500E-7	5.339263E-3
1.302000E-7	5.371809E-3
1.302500E-7	5.419771E-3
1.303000E-7	5.479725E-3
1.303500E-7	5.496854E-3
1.304000E-7	5.464308E-3
1.304500E-7	5.414633E-3
1.305000E-7	5.349540E-3
1.305500E-7	5.275884E-3
1.306000E-7	5.224495E-3
1.306500E-7	5.181671E-3
1.307000E-7	5.135422E-3
1.307500E-7	5.120005E-3
1.308000E-7	5.142273E-3
1.308500E-7	5.166255E-3
1.309000E-7	5.197088E-3
1.309500E-7	5.262180E-3
1.310000E-7	5.328985E-3
1.310500E-7	5.376948E-3
1.311000E-7	5.442040E-3
1.311500E-7	5.537965E-3
1.312000E-7	5.618474E-3
1.312500E-7	5.659584E-3
1.313000E-7	5.673288E-3
1.313500E-7	5.644168E-3
1.314000E-7	5.561946E-3
1.314500E-7	5.459169E-3
1.315000E-7	5.361531E-3
1.315500E-7	5.265606E-3
1.316000E-7	5.159403E-3
1.316500E-7	5.051487E-3
1.317000E-7	4.958988E-3
1.317500E-7	4.902460E-3
1.318000E-7	4.878479E-3
1.318500E-7	4.892183E-3
1.319000E-7	4.958988E-3
1.319500E-7	5.089172E-3
1.320000E-7	5.258754E-3
1.320500E-7	5.454030E-3
1.321000E-7	5.663010E-3
1.321500E-7	5.844583E-3
1.322000E-7	5.973054E-3
1.322500E-7	6.063841E-3
1.323000E-7	6.127220E-3
1.323500E-7	6.130646E-3
1.324000E-7	6.068979E-3
1.324500E-7	5.971341E-3
1.325000E-7	5.851435E-3
1.325500E-7	5.710973E-3
1.326000E-7	5.563659E-3
1.326500E-7	5.418058E-3
1.327000E-7	5.298152E-3
1.327500E-7	5.227921E-3
1.328000E-7	5.198801E-3
1.328500E-7	5.185097E-3
1.329000E-7	5.202227E-3
1.329500E-7	5.269032E-3
1.330000E-7	5.351253E-3
1.330500E-7	5.426623E-3
1.331000E-7	5.519122E-3
1.331500E-7	5.611622E-3
1.332000E-7	5.671575E-3
1.332500E-7	5.729815E-3
1.333000E-7	5.810324E-3
1.333500E-7	5.883981E-3
1.334000E-7	5.926805E-3
1.334500E-7	5.961064E-3
1.335000E-7	5.976480E-3
1.335500E-7	5.961064E-3
1.336000E-7	5.933656E-3
1.336500E-7	5.901110E-3
1.337000E-7	5.846296E-3
1.337500E-7	5.779491E-3
1.338000E-7	5.717825E-3
1.338500E-7	5.669862E-3
1.339000E-7	5.642455E-3
1.339500E-7	5.623612E-3
1.340000E-7	5.597918E-3
1.340500E-7	5.582502E-3
1.341000E-7	5.596205E-3
1.341500E-7	5.609909E-3
1.342000E-7	5.616761E-3
1.342500E-7	5.625325E-3
1.343000E-7	5.630464E-3
1.343500E-7	5.616761E-3
1.344000E-7	5.604770E-3
1.344500E-7	5.597918E-3
1.345000E-7	5.591066E-3
1.345500E-7	5.589353E-3
1.346000E-7	5.580789E-3
1.346500E-7	5.556807E-3
1.347000E-7	5.539678E-3
1.347500E-7	5.544817E-3
1.348000E-7	5.537965E-3
1.348500E-7	5.519122E-3
1.349000E-7	5.501993E-3
1.349500E-7	5.467734E-3
1.350000E-7	5.390651E-3
1.350500E-7	5.303291E-3
1.351000E-7	5.239912E-3
1.351500E-7	5.198801E-3
1.352000E-7	5.171394E-3
1.352500E-7	5.154264E-3
1.353000E-7	5.145699E-3
1.353500E-7	5.159403E-3
1.354000E-7	5.200514E-3
1.354500E-7	5.255328E-3
1.355000E-7	5.308430E-3
1.355500E-7	5.359818E-3
1.356000E-7	5.400929E-3
1.356500E-7	5.419771E-3
1.357000E-7	5.419771E-3
1.357500E-7	5.397503E-3
1.358000E-7	5.363244E-3
1.358500E-7	5.340976E-3
1.359000E-7	5.354679E-3
1.359500E-7	5.387225E-3
1.360000E-7	5.431762E-3
1.360500E-7	5.500280E-3
1.361000E-7	5.589353E-3
1.361500E-7	5.671575E-3
1.362000E-7	5.750371E-3
1.362500E-7	5.817176E-3
1.363000E-7	5.830879E-3
1.363500E-7	5.782917E-3
1.364000E-7	5.704121E-3
1.364500E-7	5.609909E-3
1.365000E-7	5.496854E-3
1.365500E-7	5.382086E-3
1.366000E-7	5.272458E-3
1.366500E-7	5.167968E-3
1.367000E-7	5.089172E-3
1.367500E-7	5.036071E-3
1.368000E-7	5.003524E-3
1.368500E-7	5.003524E-3
1.369000E-7	5.034358E-3
1.369500E-7	5.068617E-3
1.370000E-7	5.106301E-3
1.370500E-7	5.133709E-3
1.371000E-7	5.123431E-3
1.371500E-7	5.102876E-3
1.372000E-7	5.109727E-3
1.372500E-7	5.116579E-3
1.373000E-7	5.096024E-3
1.373500E-7	5.085746E-3
1.374000E-7	5.111440E-3
1.374500E-7	5.138848E-3
1.375000E-7	5.154264E-3
1.375500E-7	5.154264E-3
1.376000E-7	5.128570E-3
1.376500E-7	5.084033E-3
1.377000E-7	5.032645E-3
1.377500E-7	4.984682E-3
1.378000E-7	4.938432E-3
1.378500E-7	4.895609E-3
1.379000E-7	4.869914E-3
1.379500E-7	4.892183E-3
1.380000E-7	4.953849E-3
1.380500E-7	5.017228E-3
1.381000E-7	5.108014E-3
1.381500E-7	5.262180E-3
1.382000E-7	5.454030E-3
1.382500E-7	5.627038E-3
1.383000E-7	5.777778E-3
1.383500E-7	5.919953E-3
1.384000E-7	6.041572E-3
1.384500E-7	6.123794E-3
1.385000E-7	6.154627E-3
1.385500E-7	6.118655E-3
1.386000E-7	6.010739E-3
1.386500E-7	5.851435E-3
1.387000E-7	5.669862E-3
1.387500E-7	5.493428E-3
1.388000E-7	5.330698E-3
1.388500E-7	5.167968E-3
1.389000E-7	5.015515E-3
1.389500E-7	4.905886E-3
1.390000E-7	4.863063E-3
1.390500E-7	4.875053E-3
1.391000E-7	4.916164E-3
1.391500E-7	5.000099E-3
1.392000E-7	5.120005E-3
1.392500E-7	5.248476E-3
1.393000E-7	5.364957E-3
1.393500E-7	5.469447E-3
1.394000E-7	5.548243E-3
1.394500E-7	5.587640E-3
1.395000E-7	5.613335E-3
1.395500E-7	5.635603E-3
1.396000E-7	5.628751E-3
1.396500E-7	5.596205E-3
1.397000E-7	5.567085E-3
1.397500E-7	5.546530E-3
1.398000E-7	5.517410E-3
1.398500E-7	5.488289E-3
1.399000E-7	5.459169E-3
1.399500E-7	5.438614E-3
1.400000E-7	5.436901E-3
1.400500E-7	5.450604E-3
1.401000E-7	5.459169E-3
1.401500E-7	5.478012E-3
1.402000E-7	5.525974E-3
1.402500E-7	5.575650E-3
1.403000E-7	5.603057E-3
1.403500E-7	5.628751E-3
1.404000E-7	5.675001E-3
1.404500E-7	5.721251E-3
1.405000E-7	5.753797E-3
1.405500E-7	5.788056E-3
1.406000E-7	5.827453E-3
1.406500E-7	5.853148E-3
1.407000E-7	5.861712E-3
1.407500E-7	5.877129E-3
1.408000E-7	5.892546E-3
1.408500E-7	5.880555E-3
1.409000E-7	5.842870E-3
1.409500E-7	5.817176E-3
1.410000E-7	5.803472E-3
1.410500E-7	5.782917E-3
1.411000E-7	5.745232E-3
1.411500E-7	5.705834E-3
1.412000E-7	5.663010E-3
1.412500E-7	5.609909E-3
1.413000E-7	5.556807E-3
1.413500E-7	5.524261E-3
1.414000E-7	5.496854E-3
1.414500E-7	5.471160E-3
1.415000E-7	5.472873E-3
1.415500E-7	5.488289E-3
1.416000E-7	5.501993E-3
1.416500E-7	5.508845E-3
1.417000E-7	5.507132E-3
1.417500E-7	5.479725E-3
1.418000E-7	5.419771E-3
1.418500E-7	5.354679E-3
1.419000E-7	5.270745E-3
1.419500E-7	5.143986E-3
1.420000E-7	4.986395E-3
1.420500E-7	4.847646E-3
1.421000E-7	4.734591E-3
1.421500E-7	4.630101E-3
1.422000E-7	4.553019E-3
1.422500E-7	4.544454E-3
1.423000E-7	4.597555E-3
1.423500E-7	4.688342E-3
1.424000E-7	4.808248E-3
1.424500E-7	4.960701E-3
1.425000E-7	5.120005E-3
1.425500E-7	5.258754E-3
1.426000E-7	5.375235E-3
1.426500E-7	5.486576E-3
1.427000E-7	5.589353E-3
1.427500E-7	5.668149E-3
1.428000E-7	5.719538E-3
1.428500E-7	5.743519E-3
1.429000E-7	5.746945E-3
1.429500E-7	5.738380E-3
1.430000E-7	5.745232E-3
1.430500E-7	5.755510E-3
1.431000E-7	5.750371E-3
1.431500E-7	5.750371E-3
1.432000E-7	5.767500E-3
1.432500E-7	5.769213E-3
1.433000E-7	5.748658E-3
1.433500E-7	5.728102E-3
1.434000E-7	5.698982E-3
1.434500E-7	5.654446E-3
1.435000E-7	5.627038E-3
1.435500E-7	5.628751E-3
1.436000E-7	5.630464E-3
1.436500E-7	5.620187E-3
1.437000E-7	5.618474E-3
1.437500E-7	5.630464E-3
1.438000E-7	5.656158E-3
1.438500E-7	5.685279E-3
1.439000E-7	5.710973E-3
1.439500E-7	5.741806E-3
1.440000E-7	5.781204E-3
1.440500E-7	5.806898E-3
1.441000E-7	5.822315E-3
1.441500E-7	5.841157E-3
1.442000E-7	5.841157E-3
1.442500E-7	5.806898E-3
1.443000E-7	5.765787E-3
1.443500E-7	5.729815E-3
1.444000E-7	5.678427E-3
1.444500E-7	5.609909E-3
1.445000E-7	5.548243E-3
1.445500E-7	5.505419E-3
1.446000E-7	5.474586E-3
1.446500E-7	5.440327E-3
1.447000E-7	5.388938E-3
1.447500E-7	5.328985E-3
1.448000E-7	5.296439E-3
1.448500E-7	5.294726E-3
1.449000E-7	5.316994E-3
1.449500E-7	5.359818E-3
1.450000E-7	5.409494E-3
1.450500E-7	5.452317E-3
1.451000E-7	5.495141E-3
1.451500E-7	5.541391E-3
1.452000E-7	5.584215E-3
1.452500E-7	5.621899E-3
1.453000E-7	5.644168E-3
1.453500E-7	5.637316E-3
1.454000E-7	5.606483E-3
1.454500E-7	5.561946E-3
1.455000E-7	5.496854E-3
1.455500E-7	5.418058E-3
1.456000E-7	5.359818E-3
1.456500E-7	5.316994E-3
1.457000E-7	5.279309E-3
1.457500E-7	5.286161E-3
1.458000E-7	5.339263E-3
1.458500E-7	5.400929E-3
1.459000E-7	5.479725E-3
1.459500E-7	5.594492E-3
1.460000E-7	5.716112E-3
1.460500E-7	5.818889E-3
1.461000E-7	5.895971E-3
1.461500E-7	5.935369E-3
1.462000E-7	5.911388E-3
1.462500E-7	5.836018E-3
1.463000E-7	5.721251E-3
1.463500E-7	5.570511E-3
1.464000E-7	5.397503E-3
1.464500E-7	5.215930E-3
1.465000E-7	5.034358E-3
1.465500E-7	4.873340E-3
1.466000E-7	4.750008E-3
1.466500E-7	4.662647E-3
1.467000E-7	4.604407E-3
1.467500E-7	4.577000E-3
1.468000E-7	4.590704E-3
1.468500E-7	4.642092E-3
1.469000E-7	4.731165E-3
1.469500E-7	4.852785E-3
1.470000E-7	4.989821E-3
1.470500E-7	5.142273E-3
1.471000E-7	5.305004E-3
1.471500E-7	5.462595E-3
1.472000E-7	5.589353E-3
1.472500E-7	5.697269E-3
1.473000E-7	5.788056E-3
1.473500E-7	5.844583E-3
1.474000E-7	5.853148E-3
1.474500E-7	5.815463E-3
1.475000E-7	5.748658E-3
1.475500E-7	5.661297E-3
1.476000E-7	5.565372E-3
1.476500E-7	5.455743E-3
1.477000E-7	5.358105E-3
1.477500E-7	5.308430E-3
1.478000E-7	5.296439E-3
1.478500E-7	5.281022E-3
1.479000E-7	5.275884E-3
1.479500E-7	5.320420E-3
1.480000E-7	5.406068E-3
1.480500E-7	5.476299E-3
1.481000E-7	5.525974E-3
1.481500E-7	5.582502E-3
1.482000E-7	5.630464E-3
1.482500E-7	5.635603E-3
1.483000E-7	5.604770E-3
1.483500E-7	5.555094E-3
1.484000E-7	5.479725E-3
1.484500E-7	5.376948E-3
1.485000E-7	5.267319E-3
1.485500E-7	5.178245E-3
1.486000E-7	5.114866E-3
1.486500E-7	5.070330E-3
1.487000E-7	5.053200E-3
1.487500E-7	5.068617E-3
1.488000E-7	5.111440E-3
1.488500E-7	5.166255E-3
1.489000E-7	5.221069E-3
1.489500E-7	5.272458E-3
1.490000E-7	5.328985E-3
1.490500E-7	5.380374E-3
1.491000E-7	5.383799E-3
1.491500E-7	5.335837E-3
1.492000E-7	5.286161E-3
1.492500E-7	5.263893E-3
1.493000E-7	5.243337E-3
1.493500E-7	5.207366E-3
1.494000E-7	5.173107E-3
1.494500E-7	5.152551E-3
1.495000E-7	5.140560E-3
1.495500E-7	5.147412E-3
1.496000E-7	5.179958E-3
1.496500E-7	5.221069E-3
1.497000E-7	5.253615E-3
1.497500E-7	5.284448E-3
1.498000E-7	5.328985E-3
1.498500E-7	5.373522E-3
1.499000E-7	5.397503E-3
1.499500E-7	5.411207E-3
1.500000E-7	5.436901E-3
1.500500E-7	5.462595E-3
1.501000E-7	5.462595E-3
1.501500E-7	5.452317E-3
1.502000E-7	5.466021E-3
1.502500E-7	5.493428E-3
1.503000E-7	5.510558E-3
1.503500E-7	5.520835E-3
1.504000E-7	5.534539E-3
1.504500E-7	5.541391E-3
1.505000E-7	5.524261E-3
1.505500E-7	5.498567E-3
1.506000E-7	5.478012E-3
1.506500E-7	5.445466E-3
1.507000E-7	5.390651E-3
1.507500E-7	5.318707E-3
1.508000E-7	5.250189E-3
1.508500E-7	5.186810E-3
1.509000E-7	5.121718E-3
1.509500E-7	5.063478E-3
1.510000E-7	5.020654E-3
1.510500E-7	4.986395E-3
1.511000E-7	4.948710E-3
1.511500E-7	4.936719E-3
1.512000E-7	4.958988E-3
1.512500E-7	4.986395E-3
1.513000E-7	5.005237E-3
1.513500E-7	5.039496E-3
1.514000E-7	5.102876E-3
1.514500E-7	5.164542E-3
1.515000E-7	5.214217E-3
1.515500E-7	5.260467E-3
1.516000E-7	5.296439E-3
1.516500E-7	5.306717E-3
1.517000E-7	5.301578E-3
1.517500E-7	5.301578E-3
1.518000E-7	5.291300E-3
1.518500E-7	5.251902E-3
1.519000E-7	5.205653E-3
1.519500E-7	5.181671E-3
1.520000E-7	5.157690E-3
1.520500E-7	5.137135E-3
1.521000E-7	5.128570E-3
1.521500E-7	5.120005E-3
1.522000E-7	5.102876E-3
1.522500E-7	5.082320E-3
1.523000E-7	5.051487E-3
1.523500E-7	5.017228E-3
1.524000E-7	4.993247E-3
1.524500E-7	5.000099E-3
1.525000E-7	5.018941E-3
1.525500E-7	5.046348E-3
1.526000E-7	5.089172E-3
1.526500E-7	5.150838E-3
1.527000E-7	5.243337E-3
1.527500E-7	5.363244E-3
1.528000E-7	5.490002E-3
1.528500E-7	5.615048E-3
1.529000E-7	5.755510E-3
1.529500E-7	5.901110E-3
1.530000E-7	5.988471E-3
1.530500E-7	5.998748E-3
1.531000E-7	5.979906E-3
1.531500E-7	5.945647E-3
1.532000E-7	5.863425E-3
1.532500E-7	5.729815E-3
1.533000E-7	5.596205E-3
1.533500E-7	5.493428E-3
1.534000E-7	5.409494E-3
1.534500E-7	5.340976E-3
1.535000E-7	5.322133E-3
1.535500E-7	5.363244E-3
1.536000E-7	5.426623E-3
1.536500E-7	5.483151E-3
1.537000E-7	5.531113E-3
1.537500E-7	5.573937E-3
1.538000E-7	5.592779E-3
1.538500E-7	5.575650E-3
1.539000E-7	5.532826E-3
1.539500E-7	5.459169E-3
1.540000E-7	5.363244E-3
1.540500E-7	5.258754E-3
1.541000E-7	5.173107E-3
1.541500E-7	5.109727E-3
1.542000E-7	5.066904E-3
1.542500E-7	5.037783E-3
1.543000E-7	5.032645E-3
1.543500E-7	5.054913E-3
1.544000E-7	5.104589E-3
1.544500E-7	5.173107E-3
1.545000E-7	5.257041E-3
1.545500E-7	5.349540E-3
1.546000E-7	5.443753E-3
1.546500E-7	5.529400E-3
1.547000E-7	5.599631E-3
1.547500E-7	5.637316E-3
1.548000E-7	5.640742E-3
1.548500E-7	5.635603E-3
1.549000E-7	5.621899E-3
1.549500E-7	5.573937E-3
1.550000E-7	5.507132E-3
1.550500E-7	5.460882E-3
1.551000E-7	5.412920E-3
1.551500E-7	5.349540E-3
1.552000E-7	5.298152E-3
1.552500E-7	5.279309E-3
1.553000E-7	5.263893E-3
1.553500E-7	5.257041E-3
1.554000E-7	5.279309E-3
1.554500E-7	5.328985E-3
1.555000E-7	5.412920E-3
1.555500E-7	5.531113E-3
1.556000E-7	5.644168E-3
1.556500E-7	5.731528E-3
1.557000E-7	5.825741E-3
1.557500E-7	5.947360E-3
1.558000E-7	6.060415E-3
1.558500E-7	6.123794E-3
1.559000E-7	6.154627E-3
1.559500E-7	6.164905E-3
1.560000E-7	6.159766E-3
1.560500E-7	6.113516E-3
1.561000E-7	6.033007E-3
1.561500E-7	5.943934E-3
1.562000E-7	5.861712E-3
1.562500E-7	5.764074E-3
1.563000E-7	5.652733E-3
1.563500E-7	5.548243E-3
1.564000E-7	5.459169E-3
1.564500E-7	5.366670E-3
1.565000E-7	5.291300E-3
1.565500E-7	5.257041E-3
1.566000E-7	5.239912E-3
1.566500E-7	5.221069E-3
1.567000E-7	5.214217E-3
1.567500E-7	5.224495E-3
1.568000E-7	5.253615E-3
1.568500E-7	5.289587E-3
1.569000E-7	5.332411E-3
1.569500E-7	5.358105E-3
1.570000E-7	5.385512E-3
1.570500E-7	5.435188E-3
1.571000E-7	5.500280E-3
1.571500E-7	5.577363E-3
1.572000E-7	5.669862E-3
1.572500E-7	5.772639E-3
1.573000E-7	5.853148E-3
1.573500E-7	5.904536E-3
1.574000E-7	5.940508E-3
1.574500E-7	5.966202E-3
1.575000E-7	5.978193E-3
1.575500E-7	5.959351E-3
1.576000E-7	5.923379E-3
1.576500E-7	5.877129E-3
1.577000E-7	5.822315E-3
1.577500E-7	5.757223E-3
1.578000E-7	5.705834E-3
1.578500E-7	5.671575E-3
1.579000E-7	5.640742E-3
1.579500E-7	5.637316E-3
1.580000E-7	5.676714E-3
1.580500E-7	5.741806E-3
1.581000E-7	5.793194E-3
1.581500E-7	5.839444E-3
1.582000E-7	5.863425E-3
1.582500E-7	5.846296E-3
1.583000E-7	5.825741E-3
1.583500E-7	5.822315E-3
1.584000E-7	5.800046E-3
1.584500E-7	5.731528E-3
1.585000E-7	5.637316E-3
1.585500E-7	5.543104E-3
1.586000E-7	5.457456E-3
1.586500E-7	5.400929E-3
1.587000E-7	5.375235E-3
1.587500E-7	5.354679E-3
1.588000E-7	5.320420E-3
1.588500E-7	5.294726E-3
1.589000E-7	5.279309E-3
1.589500E-7	5.236486E-3
1.590000E-7	5.159403E-3
1.590500E-7	5.080607E-3
1.591000E-7	5.006950E-3
1.591500E-7	4.911025E-3
1.592000E-7	4.809961E-3
1.592500E-7	4.731165E-3
1.593000E-7	4.676351E-3
1.593500E-7	4.652370E-3
1.594000E-7	4.657509E-3
1.594500E-7	4.678064E-3
1.595000E-7	4.731165E-3
1.595500E-7	4.835655E-3
1.596000E-7	4.974404E-3
1.596500E-7	5.126857E-3
1.597000E-7	5.298152E-3
1.597500E-7	5.476299E-3
1.598000E-7	5.625325E-3
1.598500E-7	5.757223E-3
1.599000E-7	5.878842E-3
1.599500E-7	5.957638E-3
1.600000E-7	5.983332E-3
1.600500E-7	5.991897E-3
1.601000E-7	5.973054E-3
1.601500E-7	5.899397E-3
1.602000E-7	5.782917E-3
1.602500E-7	5.652733E-3
1.603000E-7	5.503706E-3
1.603500E-7	5.339263E-3
1.604000E-7	5.197088E-3
1.604500E-7	5.094311E-3
1.605000E-7	5.008663E-3
1.605500E-7	4.950423E-3
1.606000E-7	4.940145E-3
1.606500E-7	4.964127E-3
1.607000E-7	4.989821E-3
1.607500E-7	5.012089E-3
1.608000E-7	5.051487E-3
1.608500E-7	5.116579E-3
1.609000E-7	5.181671E-3
1.609500E-7	5.227921E-3
1.610000E-7	5.277596E-3
1.610500E-7	5.340976E-3
1.611000E-7	5.395790E-3
1.611500E-7	5.442040E-3
1.612000E-7	5.501993E-3
1.612500E-7	5.560233E-3
1.613000E-7	5.603057E-3
1.613500E-7	5.664723E-3
1.614000E-7	5.748658E-3
1.614500E-7	5.791482E-3
1.615000E-7	5.782917E-3
1.615500E-7	5.769213E-3
1.616000E-7	5.762361E-3
1.616500E-7	5.716112E-3
1.617000E-7	5.640742E-3
1.617500E-7	5.561946E-3
1.618000E-7	5.491715E-3
1.618500E-7	5.430049E-3
1.619000E-7	5.375235E-3
1.619500E-7	5.320420E-3
1.620000E-7	5.274171E-3
1.620500E-7	5.248476E-3
1.621000E-7	5.236486E-3
1.621500E-7	5.248476E-3
1.622000E-7	5.281022E-3
1.622500E-7	5.308430E-3
1.623000E-7	5.320420E-3
1.623500E-7	5.347827E-3
1.624000E-7	5.363244E-3
1.624500E-7	5.337550E-3
1.625000E-7	5.299865E-3
1.625500E-7	5.262180E-3
1.626000E-7	5.193662E-3
1.626500E-7	5.101163E-3
1.627000E-7	5.022367E-3
1.627500E-7	4.964127E-3
1.628000E-7	4.917877E-3
1.628500E-7	4.909312E-3
1.629000E-7	4.919590E-3
1.629500E-7	4.923016E-3
1.630000E-7	4.933294E-3
1.630500E-7	4.964127E-3
1.631000E-7	4.977830E-3
1.631500E-7	4.981256E-3
1.632000E-7	5.010376E-3
1.632500E-7	5.051487E-3
1.633000E-7	5.065191E-3
1.633500E-7	5.082320E-3
1.634000E-7	5.113153E-3
1.634500E-7	5.137135E-3
1.635000E-7	5.152551E-3
1.635500E-7	5.203940E-3
1.636000E-7	5.291300E-3
1.636500E-7	5.364957E-3
1.637000E-7	5.416345E-3
1.637500E-7	5.464308E-3
1.638000E-7	5.500280E-3
1.638500E-7	5.501993E-3
1.639000E-7	5.460882E-3
1.639500E-7	5.402642E-3
1.640000E-7	5.351253E-3
1.640500E-7	5.311855E-3
1.641000E-7	5.274171E-3
1.641500E-7	5.262180E-3
1.642000E-7	5.305004E-3
1.642500E-7	5.387225E-3
1.643000E-7	5.474586E-3
1.643500E-7	5.556807E-3
1.644000E-7	5.656158E-3
1.644500E-7	5.752084E-3
1.645000E-7	5.813750E-3
1.645500E-7	5.837731E-3
1.646000E-7	5.813750E-3
1.646500E-7	5.743519E-3
1.647000E-7	5.647594E-3
1.647500E-7	5.546530E-3
1.648000E-7	5.424910E-3
1.648500E-7	5.289587E-3
1.649000E-7	5.197088E-3
1.649500E-7	5.174819E-3
1.650000E-7	5.210791E-3
1.650500E-7	5.286161E-3
1.651000E-7	5.387225E-3
1.651500E-7	5.490002E-3
1.652000E-7	5.615048E-3
1.652500E-7	5.779491E-3
1.653000E-7	5.947360E-3
1.653500E-7	6.068979E-3
1.654000E-7	6.144349E-3
1.654500E-7	6.185460E-3
1.655000E-7	6.183747E-3
1.655500E-7	6.130646E-3
1.656000E-7	6.053563E-3
1.656500E-7	5.974767E-3
1.657000E-7	5.890833E-3
1.657500E-7	5.786343E-3
1.658000E-7	5.668149E-3
1.658500E-7	5.575650E-3
1.659000E-7	5.519122E-3
1.659500E-7	5.462595E-3
1.660000E-7	5.412920E-3
1.660500E-7	5.399216E-3
1.661000E-7	5.404355E-3
1.661500E-7	5.390651E-3
1.662000E-7	5.390651E-3
1.662500E-7	5.412920E-3
1.663000E-7	5.411207E-3
1.663500E-7	5.378661E-3
1.664000E-7	5.373522E-3
1.664500E-7	5.380374E-3
1.665000E-7	5.358105E-3
1.665500E-7	5.322133E-3
1.666000E-7	5.294726E-3
1.666500E-7	5.251902E-3
1.667000E-7	5.200514E-3
1.667500E-7	5.159403E-3
1.668000E-7	5.140560E-3
1.668500E-7	5.157690E-3
1.669000E-7	5.210791E-3
1.669500E-7	5.258754E-3
1.670000E-7	5.301578E-3
1.670500E-7	5.388938E-3
1.671000E-7	5.491715E-3
1.671500E-7	5.555094E-3
1.672000E-7	5.592779E-3
1.672500E-7	5.632177E-3
1.673000E-7	5.657871E-3
1.673500E-7	5.676714E-3
1.674000E-7	5.695556E-3
1.674500E-7	5.692130E-3
1.675000E-7	5.663010E-3
1.675500E-7	5.647594E-3
1.676000E-7	5.630464E-3
1.676500E-7	5.591066E-3
1.677000E-7	5.563659E-3
1.677500E-7	5.549956E-3
1.678000E-7	5.531113E-3
1.678500E-7	5.513984E-3
1.679000E-7	5.508845E-3
1.679500E-7	5.476299E-3
1.680000E-7	5.412920E-3
1.680500E-7	5.368383E-3
1.681000E-7	5.335837E-3
1.681500E-7	5.301578E-3
1.682000E-7	5.286161E-3
1.682500E-7	5.303291E-3
1.683000E-7	5.334124E-3
1.683500E-7	5.380374E-3
1.684000E-7	5.436901E-3
1.684500E-7	5.491715E-3
1.685000E-7	5.555094E-3
1.685500E-7	5.621899E-3
1.686000E-7	5.663010E-3
1.686500E-7	5.683566E-3
1.687000E-7	5.690417E-3
1.687500E-7	5.647594E-3
1.688000E-7	5.546530E-3
1.688500E-7	5.431762E-3
1.689000E-7	5.306717E-3
1.689500E-7	5.171394E-3
1.690000E-7	5.065191E-3
1.690500E-7	4.988108E-3
1.691000E-7	4.899035E-3
1.691500E-7	4.833942E-3
1.692000E-7	4.839081E-3
1.692500E-7	4.875053E-3
1.693000E-7	4.907599E-3
1.693500E-7	4.965840E-3
1.694000E-7	5.025793E-3
1.694500E-7	5.054913E-3
1.695000E-7	5.075468E-3
1.695500E-7	5.108014E-3
1.696000E-7	5.113153E-3
1.696500E-7	5.087459E-3
1.697000E-7	5.063478E-3
1.697500E-7	5.027506E-3
1.698000E-7	4.955562E-3
1.698500E-7	4.885331E-3
1.699000E-7	4.864776E-3
1.699500E-7	4.885331E-3
1.700000E-7	4.929868E-3
1.700500E-7	4.996673E-3
1.701000E-7	5.080607E-3
1.701500E-7	5.179958E-3
1.702000E-7	5.296439E-3
1.702500E-7	5.388938E-3
1.703000E-7	5.426623E-3
1.703500E-7	5.423197E-3
1.704000E-7	5.402642E-3
1.704500E-7	5.351253E-3
1.705000E-7	5.272458E-3
1.705500E-7	5.202227E-3
1.706000E-7	5.142273E-3
1.706500E-7	5.084033E-3
1.707000E-7	5.056626E-3
1.707500E-7	5.099450E-3
1.708000E-7	5.171394E-3
1.708500E-7	5.239912E-3
1.709000E-7	5.325559E-3
1.709500E-7	5.424910E-3
1.710000E-7	5.512271E-3
1.710500E-7	5.565372E-3
1.711000E-7	5.597918E-3
1.711500E-7	5.609909E-3
1.712000E-7	5.585928E-3
1.712500E-7	5.529400E-3
1.713000E-7	5.467734E-3
1.713500E-7	5.411207E-3
1.714000E-7	5.352966E-3
1.714500E-7	5.281022E-3
1.715000E-7	5.200514E-3
1.715500E-7	5.131996E-3
1.716000E-7	5.082320E-3
1.716500E-7	5.066904E-3
1.717000E-7	5.094311E-3
1.717500E-7	5.152551E-3
1.718000E-7	5.224495E-3
1.718500E-7	5.299865E-3
1.719000E-7	5.366670E-3
1.719500E-7	5.426623E-3
1.720000E-7	5.481438E-3
1.720500E-7	5.543104E-3
1.721000E-7	5.609909E-3
1.721500E-7	5.668149E-3
1.722000E-7	5.704121E-3
1.722500E-7	5.702408E-3
1.723000E-7	5.663010E-3
1.723500E-7	5.603057E-3
1.724000E-7	5.549956E-3
1.724500E-7	5.495141E-3
1.725000E-7	5.436901E-3
1.725500E-7	5.402642E-3
1.726000E-7	5.404355E-3
1.726500E-7	5.419771E-3
1.727000E-7	5.447179E-3
1.727500E-7	5.481438E-3
1.728000E-7	5.517410E-3
1.728500E-7	5.579076E-3
1.729000E-7	5.678427E-3
1.729500E-7	5.776065E-3
1.730000E-7	5.853148E-3
1.730500E-7	5.942221E-3
1.731000E-7	6.017591E-3
1.731500E-7	6.043285E-3
1.732000E-7	6.053563E-3
1.732500E-7	6.058702E-3
1.733000E-7	6.009026E-3
1.733500E-7	5.914814E-3
1.734000E-7	5.832592E-3
1.734500E-7	5.758935E-3
1.735000E-7	5.673288E-3
1.735500E-7	5.587640E-3
1.736000E-7	5.508845E-3
1.736500E-7	5.436901E-3
1.737000E-7	5.392364E-3
1.737500E-7	5.359818E-3
1.738000E-7	5.303291E-3
1.738500E-7	5.238199E-3
1.739000E-7	5.197088E-3
1.739500E-7	5.166255E-3
1.740000E-7	5.131996E-3
1.740500E-7	5.102876E-3
1.741000E-7	5.065191E-3
1.741500E-7	5.013802E-3
1.742000E-7	4.988108E-3
1.742500E-7	4.982969E-3
1.743000E-7	4.967553E-3
1.743500E-7	4.967553E-3
1.744000E-7	5.020654E-3
1.744500E-7	5.097737E-3
1.745000E-7	5.157690E-3
1.745500E-7	5.215930E-3
1.746000E-7	5.282735E-3
1.746500E-7	5.347827E-3
1.747000E-7	5.392364E-3
1.747500E-7	5.416345E-3
1.748000E-7	5.424910E-3
1.748500E-7	5.414633E-3
1.749000E-7	5.388938E-3
1.749500E-7	5.366670E-3
1.750000E-7	5.361531E-3
1.750500E-7	5.375235E-3
1.751000E-7	5.406068E-3
1.751500E-7	5.479725E-3
1.752000E-7	5.594492E-3
1.752500E-7	5.704121E-3
1.753000E-7	5.788056E-3
1.753500E-7	5.865138E-3
1.754000E-7	5.923379E-3
1.754500E-7	5.938795E-3
1.755000E-7	5.931943E-3
1.755500E-7	5.902823E-3
1.756000E-7	5.844583E-3
1.756500E-7	5.781204E-3
1.757000E-7	5.740093E-3
1.757500E-7	5.690417E-3
1.758000E-7	5.620187E-3
1.758500E-7	5.568798E-3
1.759000E-7	5.544817E-3
1.759500E-7	5.527687E-3
1.760000E-7	5.517410E-3
1.760500E-7	5.513984E-3
1.761000E-7	5.510558E-3
1.761500E-7	5.524261E-3
1.762000E-7	5.563659E-3
1.762500E-7	5.589353E-3
1.763000E-7	5.597918E-3
1.763500E-7	5.628751E-3
1.764000E-7	5.668149E-3
1.764500E-7	5.681853E-3
1.765000E-7	5.683566E-3
1.765500E-7	5.716112E-3
1.766000E-7	5.753797E-3
1.766500E-7	5.767500E-3
1.767000E-7	5.772639E-3
1.767500E-7	5.786343E-3
1.768000E-7	5.777778E-3
1.768500E-7	5.740093E-3
1.769000E-7	5.695556E-3
1.769500E-7	5.651020E-3
1.770000E-7	5.603057E-3
1.770500E-7	5.563659E-3
1.771000E-7	5.527687E-3
1.771500E-7	5.481438E-3
1.772000E-7	5.436901E-3
1.772500E-7	5.424910E-3
1.773000E-7	5.442040E-3
1.773500E-7	5.452317E-3
1.774000E-7	5.455743E-3
1.774500E-7	5.476299E-3
1.775000E-7	5.519122E-3
1.775500E-7	5.563659E-3
1.776000E-7	5.608196E-3
1.776500E-7	5.654446E-3
1.777000E-7	5.669862E-3
1.777500E-7	5.637316E-3
1.778000E-7	5.592779E-3
1.778500E-7	5.556807E-3
1.779000E-7	5.513984E-3
1.779500E-7	5.469447E-3
1.780000E-7	5.447179E-3
1.780500E-7	5.450604E-3
1.781000E-7	5.469447E-3
1.781500E-7	5.507132E-3
1.782000E-7	5.561946E-3
1.782500E-7	5.623612E-3
1.783000E-7	5.681853E-3
1.783500E-7	5.724676E-3
1.784000E-7	5.726389E-3
1.784500E-7	5.693843E-3
1.785000E-7	5.640742E-3
1.785500E-7	5.572224E-3
1.786000E-7	5.467734E-3
1.786500E-7	5.340976E-3
1.787000E-7	5.239912E-3
1.787500E-7	5.179958E-3
1.788000E-7	5.142273E-3
1.788500E-7	5.130283E-3
1.789000E-7	5.179958E-3
1.789500E-7	5.284448E-3
1.790000E-7	5.382086E-3
1.790500E-7	5.433475E-3
1.791000E-7	5.459169E-3
1.791500E-7	5.478012E-3
1.792000E-7	5.479725E-3
1.792500E-7	5.436901E-3
1.793000E-7	5.346115E-3
1.793500E-7	5.227921E-3
1.794000E-7	5.108014E-3
1.794500E-7	4.986395E-3
1.795000E-7	4.868201E-3
1.795500E-7	4.780841E-3
1.796000E-7	4.729452E-3
1.796500E-7	4.715749E-3
1.797000E-7	4.763711E-3
1.797500E-7	4.887044E-3
1.798000E-7	5.070330E-3
1.798500E-7	5.282735E-3
1.799000E-7	5.496854E-3
1.799500E-7	5.683566E-3
1.800000E-7	5.822315E-3
1.800500E-7	5.916527E-3
1.801000E-7	5.952499E-3
1.801500E-7	5.942221E-3
1.802000E-7	5.901110E-3
1.802500E-7	5.812037E-3
1.803000E-7	5.678427E-3
1.803500E-7	5.549956E-3
1.804000E-7	5.454030E-3
1.804500E-7	5.376948E-3
1.805000E-7	5.328985E-3
1.805500E-7	5.334124E-3
1.806000E-7	5.373522E-3
1.806500E-7	5.424910E-3
1.807000E-7	5.493428E-3
1.807500E-7	5.561946E-3
1.808000E-7	5.623612E-3
1.808500E-7	5.664723E-3
1.809000E-7	5.668149E-3
1.809500E-7	5.651020E-3
1.810000E-7	5.630464E-3
1.810500E-7	5.591066E-3
1.811000E-7	5.529400E-3
1.811500E-7	5.478012E-3
1.812000E-7	5.462595E-3
1.812500E-7	5.462595E-3
1.813000E-7	5.459169E-3
1.813500E-7	5.457456E-3
1.814000E-7	5.459169E-3
1.814500E-7	5.459169E-3
1.815000E-7	5.464308E-3
1.815500E-7	5.466021E-3
1.816000E-7	5.447179E-3
1.816500E-7	5.399216E-3
1.817000E-7	5.328985E-3
1.817500E-7	5.241625E-3
1.818000E-7	5.154264E-3
1.818500E-7	5.065191E-3
1.819000E-7	4.958988E-3
1.819500E-7	4.859637E-3
1.820000E-7	4.823665E-3
1.820500E-7	4.859637E-3
1.821000E-7	4.940145E-3
1.821500E-7	5.041209E-3
1.822000E-7	5.166255E-3
1.822500E-7	5.306717E-3
1.823000E-7	5.462595E-3
1.823500E-7	5.611622E-3
1.824000E-7	5.733241E-3
1.824500E-7	5.815463E-3
1.825000E-7	5.854861E-3
1.825500E-7	5.837731E-3
1.826000E-7	5.760648E-3
1.826500E-7	5.635603E-3
1.827000E-7	5.476299E-3
1.827500E-7	5.308430E-3
1.828000E-7	5.155977E-3
1.828500E-7	5.013802E-3
1.829000E-7	4.883618E-3
1.829500E-7	4.815100E-3
1.830000E-7	4.830517E-3
1.830500E-7	4.897322E-3
1.831000E-7	4.993247E-3
1.831500E-7	5.126857E-3
1.832000E-7	5.270745E-3
1.832500E-7	5.380374E-3
1.833000E-7	5.462595E-3
1.833500E-7	5.505419E-3
1.834000E-7	5.474586E-3
1.834500E-7	5.368383E-3
1.835000E-7	5.224495E-3
1.835500E-7	5.061765E-3
1.836000E-7	4.881905E-3
1.836500E-7	4.724314E-3
1.837000E-7	4.604407E-3
1.837500E-7	4.534176E-3
1.838000E-7	4.535889E-3
1.838500E-7	4.595842E-3
1.839000E-7	4.690055E-3
1.839500E-7	4.818526E-3
1.840000E-7	4.964127E-3
1.840500E-7	5.108014E-3
1.841000E-7	5.260467E-3
1.841500E-7	5.419771E-3
1.842000E-7	5.536252E-3
1.842500E-7	5.594492E-3
1.843000E-7	5.642455E-3
1.843500E-7	5.671575E-3
1.844000E-7	5.645881E-3
1.844500E-7	5.572224E-3
1.845000E-7	5.495141E-3
1.845500E-7	5.423197E-3
1.846000E-7	5.340976E-3
1.846500E-7	5.248476E-3
1.847000E-7	5.150838E-3
1.847500E-7	5.054913E-3
1.848000E-7	4.972691E-3
1.848500E-7	4.905886E-3
1.849000E-7	4.854498E-3
1.849500E-7	4.825378E-3
1.850000E-7	4.809961E-3
1.850500E-7	4.803109E-3
1.851000E-7	4.809961E-3
1.851500E-7	4.806535E-3
1.852000E-7	4.791119E-3
1.852500E-7	4.794545E-3
1.853000E-7	4.816813E-3
1.853500E-7	4.832229E-3
1.854000E-7	4.859637E-3
1.854500E-7	4.917877E-3
1.855000E-7	4.991534E-3
1.855500E-7	5.073755E-3
1.856000E-7	5.167968E-3
1.856500E-7	5.241625E-3
1.857000E-7	5.260467E-3
1.857500E-7	5.250189E-3
1.858000E-7	5.224495E-3
1.858500E-7	5.173107E-3
1.859000E-7	5.087459E-3
1.859500E-7	4.984682E-3
1.860000E-7	4.881905E-3
1.860500E-7	4.784267E-3
1.861000E-7	4.695193E-3
1.861500E-7	4.623250E-3
1.862000E-7	4.597555E-3
1.862500E-7	4.611259E-3
1.863000E-7	4.645518E-3
1.863500E-7	4.696906E-3
1.864000E-7	4.770563E-3
1.864500E-7	4.852785E-3
1.865000E-7	4.941858E-3
1.865500E-7	5.054913E-3
1.866000E-7	5.164542E-3
1.866500E-7	5.234773E-3
1.867000E-7	5.277596E-3
1.867500E-7	5.320420E-3
1.868000E-7	5.340976E-3
1.868500E-7	5.330698E-3
1.869000E-7	5.322133E-3
1.869500E-7	5.335837E-3
1.870000E-7	5.363244E-3
1.870500E-7	5.397503E-3
1.871000E-7	5.457456E-3
1.871500E-7	5.546530E-3
1.872000E-7	5.644168E-3
1.872500E-7	5.719538E-3
1.873000E-7	5.777778E-3
1.873500E-7	5.824028E-3
1.874000E-7	5.849722E-3
1.874500E-7	5.844583E-3
1.875000E-7	5.800046E-3
1.875500E-7	5.722964E-3
1.876000E-7	5.633890E-3
1.876500E-7	5.541391E-3
1.877000E-7	5.412920E-3
1.877500E-7	5.272458E-3
1.878000E-7	5.181671E-3
1.878500E-7	5.143986E-3
1.879000E-7	5.125144E-3
1.879500E-7	5.130283E-3
1.880000E-7	5.202227E-3
1.880500E-7	5.313568E-3
1.881000E-7	5.416345E-3
1.881500E-7	5.510558E-3
1.882000E-7	5.587640E-3
1.882500E-7	5.633890E-3
1.883000E-7	5.663010E-3
1.883500E-7	5.685279E-3
1.884000E-7	5.697269E-3
1.884500E-7	5.707547E-3
1.885000E-7	5.736667E-3
1.885500E-7	5.781204E-3
1.886000E-7	5.813750E-3
1.886500E-7	5.844583E-3
1.887000E-7	5.895971E-3
1.887500E-7	5.954212E-3
1.888000E-7	5.991897E-3
1.888500E-7	5.991897E-3
1.889000E-7	5.945647E-3
1.889500E-7	5.853148E-3
1.890000E-7	5.731528E-3
1.890500E-7	5.603057E-3
1.891000E-7	5.471160E-3
1.891500E-7	5.337550E-3
1.892000E-7	5.207366E-3
1.892500E-7	5.092598E-3
1.893000E-7	5.030932E-3
1.893500E-7	5.053200E-3
1.894000E-7	5.137135E-3
1.894500E-7	5.255328E-3
1.895000E-7	5.406068E-3
1.895500E-7	5.580789E-3
1.896000E-7	5.753797E-3
1.896500E-7	5.897684E-3
1.897000E-7	5.995323E-3
1.897500E-7	6.048424E-3
1.898000E-7	6.062128E-3
1.898500E-7	6.026156E-3
1.899000E-7	5.943934E-3
1.899500E-7	5.841157E-3
1.900000E-7	5.705834E-3
1.900500E-7	5.512271E-3
1.901000E-7	5.305004E-3
1.901500E-7	5.142273E-3
1.902000E-7	5.017228E-3
1.902500E-7	4.919590E-3
1.903000E-7	4.885331E-3
1.903500E-7	4.919590E-3
1.904000E-7	4.991534E-3
1.904500E-7	5.075468E-3
1.905000E-7	5.154264E-3
1.905500E-7	5.221069E-3
1.906000E-7	5.286161E-3
1.906500E-7	5.339263E-3
1.907000E-7	5.364957E-3
1.907500E-7	5.370096E-3
1.908000E-7	5.352966E-3
1.908500E-7	5.293013E-3
1.909000E-7	5.212504E-3
1.909500E-7	5.147412E-3
1.910000E-7	5.090885E-3
1.910500E-7	5.030932E-3
1.911000E-7	4.996673E-3
1.911500E-7	5.010376E-3
1.912000E-7	5.056626E-3
1.912500E-7	5.118292E-3
1.913000E-7	5.198801E-3
1.913500E-7	5.287874E-3
1.914000E-7	5.363244E-3
1.914500E-7	5.423197E-3
1.915000E-7	5.460882E-3
1.915500E-7	5.484863E-3
1.916000E-7	5.484863E-3
1.916500E-7	5.440327E-3
1.917000E-7	5.383799E-3
1.917500E-7	5.351253E-3
1.918000E-7	5.316994E-3
1.918500E-7	5.260467E-3
1.919000E-7	5.221069E-3
1.919500E-7	5.215930E-3
1.920000E-7	5.212504E-3
1.920500E-7	5.214217E-3
1.921000E-7	5.234773E-3
1.921500E-7	5.239912E-3
1.922000E-7	5.210791E-3
1.922500E-7	5.181671E-3
1.923000E-7	5.176532E-3
1.923500E-7	5.183384E-3
1.924000E-7	5.191949E-3
1.924500E-7	5.202227E-3
1.925000E-7	5.209078E-3
1.925500E-7	5.215930E-3
1.926000E-7	5.234773E-3
1.926500E-7	5.274171E-3
1.927000E-7	5.323846E-3
1.927500E-7	5.373522E-3
1.928000E-7	5.423197E-3
1.928500E-7	5.478012E-3
1.929000E-7	5.534539E-3
1.929500E-7	5.582502E-3
1.930000E-7	5.620187E-3
1.930500E-7	5.642455E-3
1.931000E-7	5.635603E-3
1.931500E-7	5.608196E-3
1.932000E-7	5.580789E-3
1.932500E-7	5.539678E-3
1.933000E-7	5.472873E-3
1.933500E-7	5.390651E-3
1.934000E-7	5.318707E-3
1.934500E-7	5.248476E-3
1.935000E-7	5.155977E-3
1.935500E-7	5.061765E-3
1.936000E-7	4.984682E-3
1.936500E-7	4.929868E-3
1.937000E-7	4.902460E-3
1.937500E-7	4.916164E-3
1.938000E-7	4.957275E-3
1.938500E-7	4.972691E-3
1.939000E-7	4.986395E-3
1.939500E-7	5.025793E-3
1.940000E-7	5.049774E-3
1.940500E-7	5.036071E-3
1.941000E-7	5.018941E-3
1.941500E-7	5.024080E-3
1.942000E-7	5.034358E-3
1.942500E-7	5.063478E-3
1.943000E-7	5.118292E-3
1.943500E-7	5.169681E-3
1.944000E-7	5.222782E-3
1.944500E-7	5.289587E-3
1.945000E-7	5.325559E-3
1.945500E-7	5.303291E-3
1.946000E-7	5.289587E-3
1.946500E-7	5.310143E-3
1.947000E-7	5.327272E-3
1.947500E-7	5.344402E-3
1.948000E-7	5.371809E-3
1.948500E-7	5.390651E-3
1.949000E-7	5.399216E-3
1.949500E-7	5.436901E-3
1.950000E-7	5.500280E-3
1.950500E-7	5.558520E-3
1.951000E-7	5.613335E-3
1.951500E-7	5.673288E-3
1.952000E-7	5.692130E-3
1.952500E-7	5.664723E-3
1.953000E-7	5.616761E-3
1.953500E-7	5.556807E-3
1.954000E-7	5.469447E-3
1.954500E-7	5.390651E-3
1.955000E-7	5.332411E-3
1.955500E-7	5.282735E-3
1.956000E-7	5.234773E-3
1.956500E-7	5.212504E-3
1.957000E-7	5.205653E-3
1.957500E-7	5.193662E-3
1.958000E-7	5.169681E-3
1.958500E-7	5.133709E-3
1.959000E-7	5.094311E-3
1.959500E-7	5.077181E-3
1.960000E-7	5.068617E-3
1.960500E-7	5.042922E-3
1.961000E-7	5.024080E-3
1.961500E-7	5.032645E-3
1.962000E-7	5.053200E-3
1.962500E-7	5.068617E-3
1.963000E-7	5.089172E-3
1.963500E-7	5.118292E-3
1.964000E-7	5.164542E-3
1.964500E-7	5.210791E-3
1.965000E-7	5.224495E-3
1.965500E-7	5.215930E-3
1.966000E-7	5.214217E-3
1.966500E-7	5.197088E-3
1.967000E-7	5.152551E-3
1.967500E-7	5.126857E-3
1.968000E-7	5.125144E-3
1.968500E-7	5.102876E-3
1.969000E-7	5.075468E-3
1.969500E-7	5.075468E-3
1.970000E-7	5.073755E-3
1.970500E-7	5.060052E-3
1.971000E-7	5.078894E-3
1.971500E-7	5.133709E-3
1.972000E-7	5.188523E-3
1.972500E-7	5.245050E-3
1.973000E-7	5.315281E-3
1.973500E-7	5.395790E-3
1.974000E-7	5.472873E-3
1.974500E-7	5.541391E-3
1.975000E-7	5.585928E-3
1.975500E-7	5.625325E-3
1.976000E-7	5.680140E-3
1.976500E-7	5.733241E-3
1.977000E-7	5.762361E-3
1.977500E-7	5.767500E-3
1.978000E-7	5.755510E-3
1.978500E-7	5.741806E-3
1.979000E-7	5.721251E-3
1.979500E-7	5.695556E-3
1.980000E-7	5.671575E-3
1.980500E-7	5.647594E-3
1.981000E-7	5.606483E-3
1.981500E-7	5.561946E-3
1.982000E-7	5.539678E-3
1.982500E-7	5.520835E-3
1.983000E-7	5.483151E-3
1.983500E-7	5.448892E-3
1.984000E-7	5.426623E-3
1.984500E-7	5.392364E-3
1.985000E-7	5.351253E-3
1.985500E-7	5.335837E-3
1.986000E-7	5.339263E-3
1.986500E-7	5.342689E-3
1.987000E-7	5.356392E-3
1.987500E-7	5.390651E-3
1.988000E-7	5.440327E-3
1.988500E-7	5.498567E-3
1.989000E-7	5.541391E-3
1.989500E-7	5.558520E-3
1.990000E-7	5.570511E-3
1.990500E-7	5.565372E-3
1.991000E-7	5.515697E-3
1.991500E-7	5.435188E-3
1.992000E-7	5.361531E-3
1.992500E-7	5.279309E-3
1.993000E-7	5.186810E-3
1.993500E-7	5.128570E-3
1.994000E-7	5.109727E-3
1.994500E-7	5.101163E-3
1.995000E-7	5.097737E-3
1.995500E-7	5.133709E-3
1.996000E-7	5.195375E-3
1.996500E-7	5.238199E-3
1.997000E-7	5.255328E-3
1.997500E-7	5.258754E-3
1.998000E-7	5.245050E-3
1.998500E-7	5.210791E-3
1.999000E-7	5.173107E-3
1.999500E-7	5.137135E-3
2.000000E-7	5.106301E-3
