Study Name	Tungsten_temperature_sweep
Sample Name	2024-05-17
Run Name	800C_spot1
Operator	Angus
Date	5/17/2024
Time	23:26
Sign	FIX
Grating Spacing	06.40um
Channel	3
Number Traces	10000
Files in Batch	1
Batch Number	1
dt	50.000001E-12
time stamp (ms)	11:27:13 PM
	
Time	Amplitude
0.000000E+0	6.553744E-3
5.000000E-11	6.469810E-3
1.000000E-10	6.367033E-3
1.500000E-10	6.255691E-3
2.000000E-10	6.158053E-3
2.500000E-10	6.098100E-3
3.000000E-10	6.065554E-3
3.500000E-10	6.063841E-3
4.000000E-10	6.080970E-3
4.500000E-10	6.098100E-3
5.000000E-10	6.144349E-3
5.500000E-10	6.233423E-3
6.000000E-10	6.307079E-3
6.500000E-10	6.329348E-3
7.000000E-10	6.356755E-3
7.500000E-10	6.387588E-3
8.000000E-10	6.372172E-3
8.500000E-10	6.312218E-3
9.000000E-10	6.236849E-3
9.500000E-10	6.142636E-3
1.000000E-9	6.044998E-3
1.050000E-9	5.950786E-3
1.100000E-9	5.848009E-3
1.150000E-9	5.757223E-3
1.200000E-9	5.686992E-3
1.250000E-9	5.621899E-3
1.300000E-9	5.561946E-3
1.350000E-9	5.560233E-3
1.400000E-9	5.618474E-3
1.450000E-9	5.693843E-3
1.500000E-9	5.800046E-3
1.550000E-9	5.938795E-3
1.600000E-9	6.062128E-3
1.650000E-9	6.137497E-3
1.700000E-9	6.173469E-3
1.750000E-9	6.173469E-3
1.800000E-9	6.156340E-3
1.850000E-9	6.159766E-3
1.900000E-9	6.173469E-3
1.950000E-9	6.164905E-3
2.000000E-9	6.154627E-3
2.050000E-9	6.149488E-3
2.100000E-9	6.106664E-3
2.150000E-9	6.036433E-3
2.200000E-9	6.009026E-3
2.250000E-9	6.031295E-3
2.300000E-9	6.075831E-3
2.350000E-9	6.144349E-3
2.400000E-9	6.207728E-3
2.450000E-9	6.209441E-3
2.500000E-9	6.144349E-3
2.550000E-9	6.056989E-3
2.600000E-9	5.957638E-3
2.650000E-9	5.830879E-3
2.700000E-9	5.698982E-3
2.750000E-9	5.606483E-3
2.800000E-9	5.567085E-3
2.850000E-9	5.544817E-3
2.900000E-9	5.517410E-3
2.950000E-9	5.517410E-3
3.000000E-9	5.565372E-3
3.050000E-9	5.656158E-3
3.100000E-9	5.796620E-3
3.150000E-9	5.973054E-3
3.200000E-9	6.139210E-3
3.250000E-9	6.269395E-3
3.300000E-9	6.380736E-3
3.350000E-9	6.456106E-3
3.400000E-9	6.483513E-3
3.450000E-9	6.474949E-3
3.500000E-9	6.464671E-3
3.550000E-9	6.461245E-3
3.600000E-9	6.461245E-3
3.650000E-9	6.442403E-3
3.700000E-9	6.382449E-3
3.750000E-9	6.295089E-3
3.800000E-9	6.214580E-3
3.850000E-9	6.142636E-3
3.900000E-9	6.055276E-3
3.950000E-9	5.961064E-3
4.000000E-9	5.871990E-3
4.050000E-9	5.781204E-3
4.100000E-9	5.700695E-3
4.150000E-9	5.635603E-3
4.200000E-9	5.591066E-3
4.250000E-9	5.568798E-3
4.300000E-9	5.567085E-3
4.350000E-9	5.592779E-3
4.400000E-9	5.651020E-3
4.450000E-9	5.733241E-3
4.500000E-9	5.825741E-3
4.550000E-9	5.907962E-3
4.600000E-9	5.978193E-3
4.650000E-9	6.043285E-3
4.700000E-9	6.103238E-3
4.750000E-9	6.156340E-3
4.800000E-9	6.199164E-3
4.850000E-9	6.211154E-3
4.900000E-9	6.158053E-3
4.950000E-9	6.067266E-3
5.000000E-9	5.986758E-3
5.050000E-9	5.904536E-3
5.100000E-9	5.793194E-3
5.150000E-9	5.685279E-3
5.200000E-9	5.609909E-3
5.250000E-9	5.539678E-3
5.300000E-9	5.488289E-3
5.350000E-9	5.505419E-3
5.400000E-9	5.585928E-3
5.450000E-9	5.668149E-3
5.500000E-9	5.743519E-3
5.550000E-9	5.856574E-3
5.600000E-9	6.012452E-3
5.650000E-9	6.159766E-3
5.700000E-9	6.267682E-3
5.750000E-9	6.346477E-3
5.800000E-9	6.399579E-3
5.850000E-9	6.416708E-3
5.900000E-9	6.382449E-3
5.950000E-9	6.308792E-3
6.000000E-9	6.214580E-3
6.050000E-9	6.096387E-3
6.100000E-9	5.954212E-3
6.150000E-9	5.805185E-3
6.200000E-9	5.681853E-3
6.250000E-9	5.585928E-3
6.300000E-9	5.498567E-3
6.350000E-9	5.436901E-3
6.400000E-9	5.419771E-3
6.450000E-9	5.416345E-3
6.500000E-9	5.412920E-3
6.550000E-9	5.440327E-3
6.600000E-9	5.500280E-3
6.650000E-9	5.565372E-3
6.700000E-9	5.635603E-3
6.750000E-9	5.721251E-3
6.800000E-9	5.806898E-3
6.850000E-9	5.858287E-3
6.900000E-9	5.885694E-3
6.950000E-9	5.930230E-3
7.000000E-9	5.969628E-3
7.050000E-9	5.974767E-3
7.100000E-9	5.961064E-3
7.150000E-9	5.961064E-3
7.200000E-9	5.988471E-3
7.250000E-9	6.021017E-3
7.300000E-9	6.051850E-3
7.350000E-9	6.079257E-3
7.400000E-9	6.113516E-3
7.450000E-9	6.135784E-3
7.500000E-9	6.122081E-3
7.550000E-9	6.082683E-3
7.600000E-9	6.048424E-3
7.650000E-9	6.012452E-3
7.700000E-9	5.971341E-3
7.750000E-9	5.930230E-3
7.800000E-9	5.885694E-3
7.850000E-9	5.827453E-3
7.900000E-9	5.779491E-3
7.950000E-9	5.719538E-3
8.000000E-9	5.637316E-3
8.050000E-9	5.609909E-3
8.100000E-9	5.661297E-3
8.150000E-9	5.681853E-3
8.200000E-9	5.637316E-3
8.250000E-9	5.664723E-3
8.300000E-9	5.762361E-3
8.350000E-9	5.822315E-3
8.400000E-9	5.875416E-3
8.450000E-9	5.983332E-3
8.500000E-9	6.079257E-3
8.550000E-9	6.151201E-3
8.600000E-9	6.262543E-3
8.650000E-9	6.303654E-3
8.700000E-9	6.175182E-3
8.750000E-9	6.046711E-3
8.800000E-9	6.021017E-3
8.850000E-9	5.919953E-3
8.900000E-9	5.724676E-3
8.950000E-9	5.611622E-3
9.000000E-9	5.570511E-3
9.050000E-9	5.537965E-3
9.100000E-9	5.582502E-3
9.150000E-9	5.656158E-3
9.200000E-9	5.599631E-3
9.250000E-9	5.534539E-3
9.300000E-9	5.651020E-3
9.350000E-9	5.834305E-3
9.400000E-9	5.976480E-3
9.450000E-9	6.132359E-3
9.500000E-9	6.216293E-3
9.550000E-9	6.142636E-3
9.600000E-9	6.110090E-3
9.650000E-9	6.218006E-3
9.700000E-9	6.253978E-3
9.750000E-9	6.180321E-3
9.800000E-9	6.211154E-3
9.850000E-9	6.295089E-3
9.900000E-9	6.223145E-3
9.950000E-9	6.036433E-3
1.000000E-8	5.909675E-3
1.005000E-8	5.889120E-3
1.010000E-8	5.921666E-3
1.015000E-8	5.894259E-3
1.020000E-8	5.712686E-3
1.025000E-8	5.555094E-3
1.030000E-8	5.637316E-3
1.035000E-8	5.854861E-3
1.040000E-8	5.990184E-3
1.045000E-8	6.070692E-3
1.050000E-8	6.170043E-3
1.055000E-8	6.248839E-3
1.060000E-8	6.325922E-3
1.065000E-8	6.447541E-3
1.070000E-8	6.504069E-3
1.075000E-8	6.480087E-3
1.080000E-8	6.545180E-3
1.085000E-8	6.658234E-3
1.090000E-8	6.625688E-3
1.095000E-8	6.516059E-3
1.100000E-8	6.569161E-3
1.105000E-8	6.680503E-3
1.110000E-8	6.617123E-3
1.115000E-8	6.480087E-3
1.120000E-8	6.457819E-3
1.125000E-8	6.406431E-3
1.130000E-8	6.142636E-3
1.135000E-8	5.844583E-3
1.140000E-8	5.731528E-3
1.145000E-8	5.654446E-3
1.150000E-8	5.406068E-3
1.155000E-8	5.154264E-3
1.160000E-8	5.125144E-3
1.165000E-8	5.207366E-3
1.170000E-8	5.241625E-3
1.175000E-8	5.301578E-3
1.180000E-8	5.493428E-3
1.185000E-8	5.705834E-3
1.190000E-8	5.863425E-3
1.195000E-8	6.051850E-3
1.200000E-8	6.272820E-3
1.205000E-8	6.428699E-3
1.210000E-8	6.564022E-3
1.215000E-8	6.762724E-3
1.220000E-8	6.949436E-3
1.225000E-8	7.096749E-3
1.230000E-8	7.357118E-3
1.235000E-8	7.848735E-3
1.240000E-8	8.545905E-3
1.245000E-8	9.479463E-3
1.250000E-8	1.075904E-2
1.255000E-8	1.244801E-2
1.260000E-8	1.454294E-2
1.265000E-8	1.699246E-2
1.270000E-8	1.977429E-2
1.275000E-8	2.294839E-2
1.280000E-8	2.650619E-2
1.285000E-8	3.028495E-2
1.290000E-8	3.412710E-2
1.295000E-8	3.796240E-2
1.300000E-8	4.168292E-2
1.305000E-8	4.513452E-2
1.310000E-8	4.821612E-2
1.315000E-8	5.089003E-2
1.320000E-8	5.307747E-2
1.325000E-8	5.467222E-2
1.330000E-8	5.563662E-2
1.335000E-8	5.599462E-2
1.340000E-8	5.578907E-2
1.345000E-8	5.505935E-2
1.350000E-8	5.387056E-2
1.355000E-8	5.233062E-2
1.360000E-8	5.053888E-2
1.365000E-8	4.853130E-2
1.370000E-8	4.637469E-2
1.375000E-8	4.421124E-2
1.380000E-8	4.213343E-2
1.385000E-8	4.017895E-2
1.390000E-8	3.843688E-2
1.395000E-8	3.701171E-2
1.400000E-8	3.584862E-2
1.405000E-8	3.488080E-2
1.410000E-8	3.421960E-2
1.415000E-8	3.397979E-2
1.420000E-8	3.406030E-2
1.425000E-8	3.433266E-2
1.430000E-8	3.485853E-2
1.435000E-8	3.566533E-2
1.440000E-8	3.660917E-2
1.445000E-8	3.761467E-2
1.450000E-8	3.870582E-2
1.455000E-8	3.979868E-2
1.460000E-8	4.075451E-2
1.465000E-8	4.152705E-2
1.470000E-8	4.209746E-2
1.475000E-8	4.238352E-2
1.480000E-8	4.233727E-2
1.485000E-8	4.197070E-2
1.490000E-8	4.131978E-2
1.495000E-8	4.037252E-2
1.500000E-8	3.913577E-2
1.505000E-8	3.767805E-2
1.510000E-8	3.606959E-2
1.515000E-8	3.437719E-2
1.520000E-8	3.269336E-2
1.525000E-8	3.112601E-2
1.530000E-8	2.971112E-2
1.535000E-8	2.849150E-2
1.540000E-8	2.754081E-2
1.545000E-8	2.687276E-2
1.550000E-8	2.648049E-2
1.555000E-8	2.638799E-2
1.560000E-8	2.661068E-2
1.565000E-8	2.711428E-2
1.570000E-8	2.783030E-2
1.575000E-8	2.872274E-2
1.580000E-8	2.976593E-2
1.585000E-8	3.087935E-2
1.590000E-8	3.197392E-2
1.595000E-8	3.300854E-2
1.600000E-8	3.397122E-2
1.605000E-8	3.476946E-2
1.610000E-8	3.530390E-2
1.615000E-8	3.558653E-2
1.620000E-8	3.563964E-2
1.625000E-8	3.538098E-2
1.630000E-8	3.476774E-2
1.635000E-8	3.388558E-2
1.640000E-8	3.278586E-2
1.645000E-8	3.146004E-2
1.650000E-8	2.994922E-2
1.655000E-8	2.835960E-2
1.660000E-8	2.675628E-2
1.665000E-8	2.517180E-2
1.670000E-8	2.369352E-2
1.675000E-8	2.242251E-2
1.680000E-8	2.144613E-2
1.685000E-8	2.079007E-2
1.690000E-8	2.043035E-2
1.695000E-8	2.037040E-2
1.700000E-8	2.060336E-2
1.705000E-8	2.112067E-2
1.710000E-8	2.189835E-2
1.715000E-8	2.287473E-2
1.720000E-8	2.395389E-2
1.725000E-8	2.507416E-2
1.730000E-8	2.620299E-2
1.735000E-8	2.728215E-2
1.740000E-8	2.824654E-2
1.745000E-8	2.904992E-2
1.750000E-8	2.963575E-2
1.755000E-8	2.993723E-2
1.760000E-8	2.995093E-2
1.765000E-8	2.970426E-2
1.770000E-8	2.916811E-2
1.775000E-8	2.835617E-2
1.780000E-8	2.737979E-2
1.785000E-8	2.626809E-2
1.790000E-8	2.500050E-2
1.795000E-8	2.364899E-2
1.800000E-8	2.232830E-2
1.805000E-8	2.105901E-2
1.810000E-8	1.985651E-2
1.815000E-8	1.884416E-2
1.820000E-8	1.807676E-2
1.825000E-8	1.752690E-2
1.830000E-8	1.722028E-2
1.835000E-8	1.719459E-2
1.840000E-8	1.743612E-2
1.845000E-8	1.791403E-2
1.850000E-8	1.861291E-2
1.855000E-8	1.946425E-2
1.860000E-8	2.041322E-2
1.865000E-8	2.142729E-2
1.870000E-8	2.243279E-2
1.875000E-8	2.335950E-2
1.880000E-8	2.418514E-2
1.885000E-8	2.486689E-2
1.890000E-8	2.533624E-2
1.895000E-8	2.558976E-2
1.900000E-8	2.562916E-2
1.905000E-8	2.540990E-2
1.910000E-8	2.495083E-2
1.915000E-8	2.430505E-2
1.920000E-8	2.345885E-2
1.925000E-8	2.241224E-2
1.930000E-8	2.126285E-2
1.935000E-8	2.005693E-2
1.940000E-8	1.883388E-2
1.945000E-8	1.767250E-2
1.950000E-8	1.662418E-2
1.955000E-8	1.571118E-2
1.960000E-8	1.499002E-2
1.965000E-8	1.449841E-2
1.970000E-8	1.422091E-2
1.975000E-8	1.419179E-2
1.980000E-8	1.443674E-2
1.985000E-8	1.490438E-2
1.990000E-8	1.557757E-2
1.995000E-8	1.645631E-2
2.000000E-8	1.744639E-2
2.005000E-8	1.844333E-2
2.010000E-8	1.946596E-2
2.015000E-8	2.049887E-2
2.020000E-8	2.141530E-2
2.025000E-8	2.213645E-2
2.030000E-8	2.267774E-2
2.035000E-8	2.302033E-2
2.040000E-8	2.309913E-2
2.045000E-8	2.290728E-2
2.050000E-8	2.246020E-2
2.055000E-8	2.177673E-2
2.060000E-8	2.088086E-2
2.065000E-8	1.979999E-2
2.070000E-8	1.857865E-2
2.075000E-8	1.730251E-2
2.080000E-8	1.603492E-2
2.085000E-8	1.484271E-2
2.090000E-8	1.379096E-2
2.095000E-8	1.294476E-2
2.100000E-8	1.233495E-2
2.105000E-8	1.196153E-2
2.110000E-8	1.185704E-2
2.115000E-8	1.207287E-2
2.120000E-8	1.259361E-2
2.125000E-8	1.331305E-2
2.130000E-8	1.417808E-2
2.135000E-8	1.519558E-2
2.140000E-8	1.630386E-2
2.145000E-8	1.738644E-2
2.150000E-8	1.840393E-2
2.155000E-8	1.933235E-2
2.160000E-8	2.010318E-2
2.165000E-8	2.068558E-2
2.170000E-8	2.109326E-2
2.175000E-8	2.127655E-2
2.180000E-8	2.115664E-2
2.185000E-8	2.073868E-2
2.190000E-8	2.008262E-2
2.195000E-8	1.920559E-2
2.200000E-8	1.812986E-2
2.205000E-8	1.691881E-2
2.210000E-8	1.564608E-2
2.215000E-8	1.439392E-2
2.220000E-8	1.321712E-2
2.225000E-8	1.215852E-2
2.230000E-8	1.126436E-2
2.235000E-8	1.058945E-2
2.240000E-8	1.018177E-2
2.245000E-8	1.004645E-2
2.250000E-8	1.013381E-2
2.255000E-8	1.042501E-2
2.260000E-8	1.094575E-2
2.265000E-8	1.167546E-2
2.270000E-8	1.253194E-2
2.275000E-8	1.346378E-2
2.280000E-8	1.444873E-2
2.285000E-8	1.541826E-2
2.290000E-8	1.631585E-2
2.295000E-8	1.711922E-2
2.300000E-8	1.780269E-2
2.305000E-8	1.832685E-2
2.310000E-8	1.864375E-2
2.315000E-8	1.875851E-2
2.320000E-8	1.868828E-2
2.325000E-8	1.841421E-2
2.330000E-8	1.790718E-2
2.335000E-8	1.721001E-2
2.340000E-8	1.637751E-2
2.345000E-8	1.542683E-2
2.350000E-8	1.439392E-2
2.355000E-8	1.334045E-2
2.360000E-8	1.230926E-2
2.365000E-8	1.130889E-2
2.370000E-8	1.039247E-2
2.375000E-8	9.640480E-3
2.380000E-8	9.114605E-3
2.385000E-8	8.819977E-3
2.390000E-8	8.763450E-3
2.395000E-8	8.987846E-3
2.400000E-8	9.486315E-3
2.405000E-8	1.018006E-2
2.410000E-8	1.101427E-2
2.415000E-8	1.200435E-2
2.420000E-8	1.312462E-2
2.425000E-8	1.424318E-2
2.430000E-8	1.529493E-2
2.435000E-8	1.627131E-2
2.440000E-8	1.707811E-2
2.445000E-8	1.762968E-2
2.450000E-8	1.793287E-2
2.455000E-8	1.799454E-2
2.460000E-8	1.778213E-2
2.465000E-8	1.731792E-2
2.470000E-8	1.667557E-2
2.475000E-8	1.587733E-2
2.480000E-8	1.492493E-2
2.485000E-8	1.389545E-2
2.490000E-8	1.287110E-2
2.495000E-8	1.186389E-2
2.500000E-8	1.087552E-2
2.505000E-8	1.001048E-2
2.510000E-8	9.342427E-3
2.515000E-8	8.869653E-3
2.520000E-8	8.575025E-3
2.525000E-8	8.473961E-3
2.530000E-8	8.575025E-3
2.535000E-8	8.862801E-3
2.540000E-8	9.332149E-3
2.545000E-8	9.962515E-3
2.550000E-8	1.071107E-2
2.555000E-8	1.152986E-2
2.560000E-8	1.239148E-2
2.565000E-8	1.325652E-2
2.570000E-8	1.412156E-2
2.575000E-8	1.495405E-2
2.580000E-8	1.567178E-2
2.585000E-8	1.621821E-2
2.590000E-8	1.658135E-2
2.595000E-8	1.674408E-2
2.600000E-8	1.669270E-2
2.605000E-8	1.644089E-2
2.610000E-8	1.595099E-2
2.615000E-8	1.521613E-2
2.620000E-8	1.432882E-2
2.625000E-8	1.334388E-2
2.630000E-8	1.225616E-2
2.635000E-8	1.112561E-2
2.640000E-8	1.007214E-2
2.645000E-8	9.147151E-3
2.650000E-8	8.374610E-3
2.655000E-8	7.817901E-3
2.660000E-8	7.492441E-3
2.665000E-8	7.393090E-3
2.670000E-8	7.562672E-3
2.675000E-8	7.978919E-3
2.680000E-8	8.564748E-3
2.685000E-8	9.296177E-3
2.690000E-8	1.014066E-2
2.695000E-8	1.101255E-2
2.700000E-8	1.187759E-2
2.705000E-8	1.273578E-2
2.710000E-8	1.350490E-2
2.715000E-8	1.411299E-2
2.720000E-8	1.458577E-2
2.725000E-8	1.492151E-2
2.730000E-8	1.508595E-2
2.735000E-8	1.509280E-2
2.740000E-8	1.496775E-2
2.745000E-8	1.466970E-2
2.750000E-8	1.419693E-2
2.755000E-8	1.362652E-2
2.760000E-8	1.298416E-2
2.765000E-8	1.227157E-2
2.770000E-8	1.151616E-2
2.775000E-8	1.075390E-2
2.780000E-8	1.002247E-2
2.785000E-8	9.368121E-3
2.790000E-8	8.821690E-3
2.795000E-8	8.395166E-3
2.800000E-8	8.112529E-3
2.805000E-8	7.990909E-3
2.810000E-8	8.025168E-3
2.815000E-8	8.244426E-3
2.820000E-8	8.657247E-3
2.825000E-8	9.210530E-3
2.830000E-8	9.856312E-3
2.835000E-8	1.058089E-2
2.840000E-8	1.133801E-2
2.845000E-8	1.206259E-2
2.850000E-8	1.273064E-2
2.855000E-8	1.332504E-2
2.860000E-8	1.379952E-2
2.865000E-8	1.411128E-2
2.870000E-8	1.425688E-2
2.875000E-8	1.423461E-2
2.880000E-8	1.405818E-2
2.885000E-8	1.375499E-2
2.890000E-8	1.333360E-2
2.895000E-8	1.282485E-2
2.900000E-8	1.225616E-2
2.905000E-8	1.159667E-2
2.910000E-8	1.084811E-2
2.915000E-8	1.008413E-2
2.920000E-8	9.364695E-3
2.925000E-8	8.694932E-3
2.930000E-8	8.115955E-3
2.935000E-8	7.674014E-3
2.940000E-8	7.375960E-3
2.945000E-8	7.214943E-3
2.950000E-8	7.223508E-3
2.955000E-8	7.425636E-3
2.960000E-8	7.805911E-3
2.965000E-8	8.355768E-3
2.970000E-8	9.042661E-3
2.975000E-8	9.832331E-3
2.980000E-8	1.071793E-2
2.985000E-8	1.163435E-2
2.990000E-8	1.249426E-2
2.995000E-8	1.324967E-2
3.000000E-8	1.388174E-2
3.005000E-8	1.432369E-2
3.010000E-8	1.454123E-2
3.015000E-8	1.456007E-2
3.020000E-8	1.438706E-2
3.025000E-8	1.400679E-2
3.030000E-8	1.344837E-2
3.035000E-8	1.273921E-2
3.040000E-8	1.190671E-2
3.045000E-8	1.101941E-2
3.050000E-8	1.012353E-2
3.055000E-8	9.256779E-3
3.060000E-8	8.468822E-3
3.065000E-8	7.799059E-3
3.070000E-8	7.269757E-3
3.075000E-8	6.913464E-3
3.080000E-8	6.737030E-3
3.085000E-8	6.711336E-3
3.090000E-8	6.836381E-3
3.095000E-8	7.131008E-3
3.100000E-8	7.566098E-3
3.105000E-8	8.109103E-3
3.110000E-8	8.760024E-3
3.115000E-8	9.491454E-3
3.120000E-8	1.024173E-2
3.125000E-8	1.099371E-2
3.130000E-8	1.171144E-2
3.135000E-8	1.234009E-2
3.140000E-8	1.285911E-2
3.145000E-8	1.326508E-2
3.150000E-8	1.351860E-2
3.155000E-8	1.358712E-2
3.160000E-8	1.346550E-2
3.165000E-8	1.315031E-2
3.170000E-8	1.263129E-2
3.175000E-8	1.196324E-2
3.180000E-8	1.119241E-2
3.185000E-8	1.033594E-2
3.190000E-8	9.452056E-3
3.195000E-8	8.605858E-3
3.200000E-8	7.823040E-3
3.205000E-8	7.132721E-3
3.210000E-8	6.591429E-3
3.215000E-8	6.247126E-3
3.220000E-8	6.099813E-3
3.225000E-8	6.146062E-3
3.230000E-8	6.375597E-3
3.235000E-8	6.766150E-3
3.240000E-8	7.293739E-3
3.245000E-8	7.929243E-3
3.250000E-8	8.662386E-3
3.255000E-8	9.455482E-3
3.260000E-8	1.024001E-2
3.265000E-8	1.095945E-2
3.270000E-8	1.161551E-2
3.275000E-8	1.222532E-2
3.280000E-8	1.273407E-2
3.285000E-8	1.308180E-2
3.290000E-8	1.326680E-2
3.295000E-8	1.330619E-2
3.300000E-8	1.320170E-2
3.305000E-8	1.295333E-2
3.310000E-8	1.254736E-2
3.315000E-8	1.198893E-2
3.320000E-8	1.131746E-2
3.325000E-8	1.056719E-2
3.330000E-8	9.772377E-3
3.335000E-8	8.992985E-3
3.340000E-8	8.280398E-3
3.345000E-8	7.643181E-3
3.350000E-8	7.112166E-3
3.355000E-8	6.745595E-3
3.360000E-8	6.557170E-3
3.365000E-8	6.524624E-3
3.370000E-8	6.654808E-3
3.375000E-8	6.954575E-3
3.380000E-8	7.413645E-3
3.385000E-8	8.002900E-3
3.390000E-8	8.691506E-3
3.395000E-8	9.441778E-3
3.400000E-8	1.019034E-2
3.405000E-8	1.088066E-2
3.410000E-8	1.148361E-2
3.415000E-8	1.201292E-2
3.420000E-8	1.243430E-2
3.425000E-8	1.268782E-2
3.430000E-8	1.276661E-2
3.435000E-8	1.269467E-2
3.440000E-8	1.248569E-2
3.445000E-8	1.212940E-2
3.450000E-8	1.165148E-2
3.455000E-8	1.108278E-2
3.460000E-8	1.041987E-2
3.465000E-8	9.679878E-3
3.470000E-8	8.934745E-3
3.475000E-8	8.232435E-3
3.480000E-8	7.584940E-3
3.485000E-8	7.017954E-3
3.490000E-8	6.581151E-3
3.495000E-8	6.295089E-3
3.500000E-8	6.158053E-3
3.505000E-8	6.176895E-3
3.510000E-8	6.339626E-3
3.515000E-8	6.630827E-3
3.520000E-8	7.043648E-3
3.525000E-8	7.566098E-3
3.530000E-8	8.201602E-3
3.535000E-8	8.917615E-3
3.540000E-8	9.637054E-3
3.545000E-8	1.031024E-2
3.550000E-8	1.092862E-2
3.555000E-8	1.147334E-2
3.560000E-8	1.190157E-2
3.565000E-8	1.216879E-2
3.570000E-8	1.226643E-2
3.575000E-8	1.221162E-2
3.580000E-8	1.202833E-2
3.585000E-8	1.171486E-2
3.590000E-8	1.126436E-2
3.595000E-8	1.073163E-2
3.600000E-8	1.015608E-2
3.605000E-8	9.512009E-3
3.610000E-8	8.831968E-3
3.615000E-8	8.169056E-3
3.620000E-8	7.543829E-3
3.625000E-8	6.973417E-3
3.630000E-8	6.498930E-3
3.635000E-8	6.113516E-3
3.640000E-8	5.817176E-3
3.645000E-8	5.678427E-3
3.650000E-8	5.758935E-3
3.655000E-8	6.029582E-3
3.660000E-8	6.454393E-3
3.665000E-8	7.021380E-3
3.670000E-8	7.711699E-3
3.675000E-8	8.496230E-3
3.680000E-8	9.333862E-3
3.685000E-8	1.013724E-2
3.690000E-8	1.084297E-2
3.695000E-8	1.143051E-2
3.700000E-8	1.186218E-2
3.705000E-8	1.209856E-2
3.710000E-8	1.215338E-2
3.715000E-8	1.204889E-2
3.720000E-8	1.178167E-2
3.725000E-8	1.137056E-2
3.730000E-8	1.083441E-2
3.735000E-8	1.017492E-2
3.740000E-8	9.448630E-3
3.745000E-8	8.730904E-3
3.750000E-8	8.066279E-3
3.755000E-8	7.446191E-3
3.760000E-8	6.880918E-3
3.765000E-8	6.413282E-3
3.770000E-8	6.067266E-3
3.775000E-8	5.848009E-3
3.780000E-8	5.772639E-3
3.785000E-8	5.844583E-3
3.790000E-8	6.051850E-3
3.795000E-8	6.392727E-3
3.800000E-8	6.856936E-3
3.805000E-8	7.393090E-3
3.810000E-8	7.961789E-3
3.815000E-8	8.547618E-3
3.820000E-8	9.162567E-3
3.825000E-8	9.743257E-3
3.830000E-8	1.025029E-2
3.835000E-8	1.069737E-2
3.840000E-8	1.108621E-2
3.845000E-8	1.136542E-2
3.850000E-8	1.148190E-2
3.855000E-8	1.144593E-2
3.860000E-8	1.127806E-2
3.865000E-8	1.096973E-2
3.870000E-8	1.052436E-2
3.875000E-8	9.988209E-3
3.880000E-8	9.393815E-3
3.885000E-8	8.761737E-3
3.890000E-8	8.133084E-3
3.895000E-8	7.574663E-3
3.900000E-8	7.091611E-3
3.905000E-8	6.671938E-3
3.910000E-8	6.334487E-3
3.915000E-8	6.092961E-3
3.920000E-8	5.949073E-3
3.925000E-8	5.919953E-3
3.930000E-8	6.014165E-3
3.935000E-8	6.216293E-3
3.940000E-8	6.512633E-3
3.945000E-8	6.887770E-3
3.950000E-8	7.327998E-3
3.955000E-8	7.811050E-3
3.960000E-8	8.321509E-3
3.965000E-8	8.854236E-3
3.970000E-8	9.392103E-3
3.975000E-8	9.900849E-3
3.980000E-8	1.032909E-2
3.985000E-8	1.066140E-2
3.990000E-8	1.089265E-2
3.995000E-8	1.098343E-2
4.000000E-8	1.093547E-2
4.005000E-8	1.076760E-2
4.010000E-8	1.047469E-2
4.015000E-8	1.003788E-2
4.020000E-8	9.515435E-3
4.025000E-8	8.946736E-3
4.030000E-8	8.342064E-3
4.035000E-8	7.740819E-3
4.040000E-8	7.170406E-3
4.045000E-8	6.632540E-3
4.050000E-8	6.180321E-3
4.055000E-8	5.877129E-3
4.060000E-8	5.729815E-3
4.065000E-8	5.729815E-3
4.070000E-8	5.911388E-3
4.075000E-8	6.257404E-3
4.080000E-8	6.714762E-3
4.085000E-8	7.266332E-3
4.090000E-8	7.910401E-3
4.095000E-8	8.575025E-3
4.100000E-8	9.229372E-3
4.105000E-8	9.871729E-3
4.110000E-8	1.046098E-2
4.115000E-8	1.092005E-2
4.120000E-8	1.123866E-2
4.125000E-8	1.142880E-2
4.130000E-8	1.146991E-2
4.135000E-8	1.133116E-2
4.140000E-8	1.102968E-2
4.145000E-8	1.061344E-2
4.150000E-8	1.010812E-2
4.155000E-8	9.530851E-3
4.160000E-8	8.927893E-3
4.165000E-8	8.348916E-3
4.170000E-8	7.819614E-3
4.175000E-8	7.331424E-3
4.180000E-8	6.870640E-3
4.185000E-8	6.447541E-3
4.190000E-8	6.110090E-3
4.195000E-8	5.877129E-3
4.200000E-8	5.740093E-3
4.205000E-8	5.673288E-3
4.210000E-8	5.685279E-3
4.215000E-8	5.824028E-3
4.220000E-8	6.098100E-3
4.225000E-8	6.452680E-3
4.230000E-8	6.889482E-3
4.235000E-8	7.437627E-3
4.240000E-8	8.061140E-3
4.245000E-8	8.662386E-3
4.250000E-8	9.220808E-3
4.255000E-8	9.756961E-3
4.260000E-8	1.023316E-2
4.265000E-8	1.057918E-2
4.270000E-8	1.078302E-2
4.275000E-8	1.084468E-2
4.280000E-8	1.075218E-2
4.285000E-8	1.047811E-2
4.290000E-8	1.004988E-2
4.295000E-8	9.535990E-3
4.300000E-8	8.998124E-3
4.305000E-8	8.425999E-3
4.310000E-8	7.836744E-3
4.315000E-8	7.302303E-3
4.320000E-8	6.860362E-3
4.325000E-8	6.488652E-3
4.330000E-8	6.194025E-3
4.335000E-8	6.002174E-3
4.340000E-8	5.918240E-3
4.345000E-8	5.911388E-3
4.350000E-8	5.978193E-3
4.355000E-8	6.130646E-3
4.360000E-8	6.356755E-3
4.365000E-8	6.653095E-3
4.370000E-8	7.028231E-3
4.375000E-8	7.466747E-3
4.380000E-8	7.925817E-3
4.385000E-8	8.372897E-3
4.390000E-8	8.801135E-3
4.395000E-8	9.219095E-3
4.400000E-8	9.595944E-3
4.405000E-8	9.899136E-3
4.410000E-8	1.010812E-2
4.415000E-8	1.022117E-2
4.420000E-8	1.022288E-2
4.425000E-8	1.010469E-2
4.430000E-8	9.888858E-3
4.435000E-8	9.592518E-3
4.440000E-8	9.224233E-3
4.445000E-8	8.777153E-3
4.450000E-8	8.285537E-3
4.455000E-8	7.790494E-3
4.460000E-8	7.297165E-3
4.465000E-8	6.814113E-3
4.470000E-8	6.389301E-3
4.475000E-8	6.079257E-3
4.480000E-8	5.899397E-3
4.485000E-8	5.863425E-3
4.490000E-8	5.976480E-3
4.495000E-8	6.224858E-3
4.500000E-8	6.596568E-3
4.505000E-8	7.062490E-3
4.510000E-8	7.583227E-3
4.515000E-8	8.160491E-3
4.520000E-8	8.766876E-3
4.525000E-8	9.333862E-3
4.530000E-8	9.806636E-3
4.535000E-8	1.018177E-2
4.540000E-8	1.042501E-2
4.545000E-8	1.047297E-2
4.550000E-8	1.035478E-2
4.555000E-8	1.013210E-2
4.560000E-8	9.816914E-3
4.565000E-8	9.393815E-3
4.570000E-8	8.905625E-3
4.575000E-8	8.390027E-3
4.580000E-8	7.857299E-3
4.585000E-8	7.331424E-3
4.590000E-8	6.841520E-3
4.595000E-8	6.409856E-3
4.600000E-8	6.050137E-3
4.605000E-8	5.769213E-3
4.610000E-8	5.573937E-3
4.615000E-8	5.469447E-3
4.620000E-8	5.474586E-3
4.625000E-8	5.568798E-3
4.630000E-8	5.738380E-3
4.635000E-8	6.000461E-3
4.640000E-8	6.344764E-3
4.645000E-8	6.716475E-3
4.650000E-8	7.108740E-3
4.655000E-8	7.554107E-3
4.660000E-8	8.033733E-3
4.665000E-8	8.504794E-3
4.670000E-8	8.965578E-3
4.675000E-8	9.405806E-3
4.680000E-8	9.777516E-3
4.685000E-8	1.006529E-2
4.690000E-8	1.026399E-2
4.695000E-8	1.034622E-2
4.700000E-8	1.031710E-2
4.705000E-8	1.017835E-2
4.710000E-8	9.897423E-3
4.715000E-8	9.482889E-3
4.720000E-8	8.986133E-3
4.725000E-8	8.410582E-3
4.730000E-8	7.775078E-3
4.735000E-8	7.177258E-3
4.740000E-8	6.649669E-3
4.745000E-8	6.164905E-3
4.750000E-8	5.786343E-3
4.755000E-8	5.589353E-3
4.760000E-8	5.549956E-3
4.765000E-8	5.666436E-3
4.770000E-8	5.971341E-3
4.775000E-8	6.411569E-3
4.780000E-8	6.908325E-3
4.785000E-8	7.453043E-3
4.790000E-8	8.037159E-3
4.795000E-8	8.571599E-3
4.800000E-8	9.003263E-3
4.805000E-8	9.321872E-3
4.810000E-8	9.529139E-3
4.815000E-8	9.657610E-3
4.820000E-8	9.729554E-3
4.825000E-8	9.707285E-3
4.830000E-8	9.582240E-3
4.835000E-8	9.422936E-3
4.840000E-8	9.246502E-3
4.845000E-8	9.004976E-3
4.850000E-8	8.689793E-3
4.855000E-8	8.355768E-3
4.860000E-8	8.021742E-3
4.865000E-8	7.689430E-3
4.870000E-8	7.406793E-3
4.875000E-8	7.202952E-3
4.880000E-8	7.047074E-3
4.885000E-8	6.918603E-3
4.890000E-8	6.851798E-3
4.895000E-8	6.862075E-3
4.900000E-8	6.937445E-3
4.905000E-8	7.055639E-3
4.910000E-8	7.201239E-3
4.915000E-8	7.350266E-3
4.920000E-8	7.521561E-3
4.925000E-8	7.715124E-3
4.930000E-8	7.898410E-3
4.935000E-8	8.066279E-3
4.940000E-8	8.256417E-3
4.945000E-8	8.480813E-3
4.950000E-8	8.717200E-3
4.955000E-8	8.951874E-3
4.960000E-8	9.179697E-3
4.965000E-8	9.383538E-3
4.970000E-8	9.527426E-3
4.975000E-8	9.578814E-3
4.980000E-8	9.515435E-3
4.985000E-8	9.342427E-3
4.990000E-8	9.071781E-3
4.995000E-8	8.729191E-3
5.000000E-8	8.340351E-3
5.005000E-8	7.913827E-3
5.010000E-8	7.480450E-3
5.015000E-8	7.077907E-3
5.020000E-8	6.730178E-3
5.025000E-8	6.433838E-3
5.030000E-8	6.207728E-3
5.035000E-8	6.086109E-3
5.040000E-8	6.067266E-3
5.045000E-8	6.147775E-3
5.050000E-8	6.341338E-3
5.055000E-8	6.641105E-3
5.060000E-8	6.993972E-3
5.065000E-8	7.370821E-3
5.070000E-8	7.783642E-3
5.075000E-8	8.230722E-3
5.080000E-8	8.688080E-3
5.085000E-8	9.112892E-3
5.090000E-8	9.464046E-3
5.095000E-8	9.720989E-3
5.100000E-8	9.873441E-3
5.105000E-8	9.916265E-3
5.110000E-8	9.849460E-3
5.115000E-8	9.695295E-3
5.120000E-8	9.433213E-3
5.125000E-8	9.058077E-3
5.130000E-8	8.626414E-3
5.135000E-8	8.186186E-3
5.140000E-8	7.735680E-3
5.145000E-8	7.309155E-3
5.150000E-8	6.951149E-3
5.155000E-8	6.654808E-3
5.160000E-8	6.404718E-3
5.165000E-8	6.241987E-3
5.170000E-8	6.171756E-3
5.175000E-8	6.130646E-3
5.180000E-8	6.108377E-3
5.185000E-8	6.130646E-3
5.190000E-8	6.204302E-3
5.195000E-8	6.329348E-3
5.200000E-8	6.519485E-3
5.205000E-8	6.771289E-3
5.210000E-8	7.047074E-3
5.215000E-8	7.329711E-3
5.220000E-8	7.632903E-3
5.225000E-8	7.968641E-3
5.230000E-8	8.280398E-3
5.235000E-8	8.518498E-3
5.240000E-8	8.679515E-3
5.245000E-8	8.785718E-3
5.250000E-8	8.830255E-3
5.255000E-8	8.790857E-3
5.260000E-8	8.670951E-3
5.265000E-8	8.484239E-3
5.270000E-8	8.217019E-3
5.275000E-8	7.869290E-3
5.280000E-8	7.480450E-3
5.285000E-8	7.096749E-3
5.290000E-8	6.733604E-3
5.295000E-8	6.435551E-3
5.300000E-8	6.233423E-3
5.305000E-8	6.094674E-3
5.310000E-8	5.976480E-3
5.315000E-8	5.918240E-3
5.320000E-8	5.947360E-3
5.325000E-8	6.003887E-3
5.330000E-8	6.075831E-3
5.335000E-8	6.218006E-3
5.340000E-8	6.425273E-3
5.345000E-8	6.651382E-3
5.350000E-8	6.899760E-3
5.355000E-8	7.168693E-3
5.360000E-8	7.403368E-3
5.365000E-8	7.602070E-3
5.370000E-8	7.775078E-3
5.375000E-8	7.910401E-3
5.380000E-8	8.030307E-3
5.385000E-8	8.145075E-3
5.390000E-8	8.241000E-3
5.395000E-8	8.306092E-3
5.400000E-8	8.336925E-3
5.405000E-8	8.290676E-3
5.410000E-8	8.153640E-3
5.415000E-8	7.980632E-3
5.420000E-8	7.778504E-3
5.425000E-8	7.501006E-3
5.430000E-8	7.158416E-3
5.435000E-8	6.810687E-3
5.440000E-8	6.474949E-3
5.445000E-8	6.127220E-3
5.450000E-8	5.818889E-3
5.455000E-8	5.618474E-3
5.460000E-8	5.513984E-3
5.465000E-8	5.462595E-3
5.470000E-8	5.481438E-3
5.475000E-8	5.623612E-3
5.480000E-8	5.873703E-3
5.485000E-8	6.171756E-3
5.490000E-8	6.495504E-3
5.495000E-8	6.838094E-3
5.500000E-8	7.154990E-3
5.505000E-8	7.427349E-3
5.510000E-8	7.672301E-3
5.515000E-8	7.872716E-3
5.520000E-8	7.990909E-3
5.525000E-8	8.037159E-3
5.530000E-8	8.032020E-3
5.535000E-8	7.980632E-3
5.540000E-8	7.901836E-3
5.545000E-8	7.831605E-3
5.550000E-8	7.757948E-3
5.555000E-8	7.656884E-3
5.560000E-8	7.555820E-3
5.565000E-8	7.473598E-3
5.570000E-8	7.367396E-3
5.575000E-8	7.216656E-3
5.580000E-8	7.064203E-3
5.585000E-8	6.901473E-3
5.590000E-8	6.713049E-3
5.595000E-8	6.565735E-3
5.600000E-8	6.462958E-3
5.605000E-8	6.343051E-3
5.610000E-8	6.253978E-3
5.615000E-8	6.295089E-3
5.620000E-8	6.444115E-3
5.625000E-8	6.644531E-3
5.630000E-8	6.904899E-3
5.635000E-8	7.209804E-3
5.640000E-8	7.521561E-3
5.645000E-8	7.835031E-3
5.650000E-8	8.146788E-3
5.655000E-8	8.419147E-3
5.660000E-8	8.670951E-3
5.665000E-8	8.885069E-3
5.670000E-8	8.977569E-3
5.675000E-8	8.931319E-3
5.680000E-8	8.813125E-3
5.685000E-8	8.640117E-3
5.690000E-8	8.383175E-3
5.695000E-8	8.091973E-3
5.700000E-8	7.792207E-3
5.705000E-8	7.480450E-3
5.710000E-8	7.184110E-3
5.715000E-8	6.935732E-3
5.720000E-8	6.740456E-3
5.725000E-8	6.593142E-3
5.730000E-8	6.528050E-3
5.735000E-8	6.519485E-3
5.740000E-8	6.522911E-3
5.745000E-8	6.558883E-3
5.750000E-8	6.647957E-3
5.755000E-8	6.755872E-3
5.760000E-8	6.858649E-3
5.765000E-8	6.978556E-3
5.770000E-8	7.127583E-3
5.775000E-8	7.295452E-3
5.780000E-8	7.454756E-3
5.785000E-8	7.614060E-3
5.790000E-8	7.795633E-3
5.795000E-8	7.968641E-3
5.800000E-8	8.066279E-3
5.805000E-8	8.079983E-3
5.810000E-8	8.049150E-3
5.815000E-8	7.994335E-3
5.820000E-8	7.917253E-3
5.825000E-8	7.807624E-3
5.830000E-8	7.650032E-3
5.835000E-8	7.456469E-3
5.840000E-8	7.264619E-3
5.845000E-8	7.079620E-3
5.850000E-8	6.886057E-3
5.855000E-8	6.678790E-3
5.860000E-8	6.490365E-3
5.865000E-8	6.324209E-3
5.870000E-8	6.194025E-3
5.875000E-8	6.098100E-3
5.880000E-8	6.029582E-3
5.885000E-8	5.990184E-3
5.890000E-8	5.997036E-3
5.895000E-8	6.070692E-3
5.900000E-8	6.221432E-3
5.905000E-8	6.447541E-3
5.910000E-8	6.719900E-3
5.915000E-8	7.029944E-3
5.920000E-8	7.384525E-3
5.925000E-8	7.756235E-3
5.930000E-8	8.076557E-3
5.935000E-8	8.330073E-3
5.940000E-8	8.532202E-3
5.945000E-8	8.641830E-3
5.950000E-8	8.624701E-3
5.955000E-8	8.525350E-3
5.960000E-8	8.386601E-3
5.965000E-8	8.193037E-3
5.970000E-8	7.908688E-3
5.975000E-8	7.578088E-3
5.980000E-8	7.244063E-3
5.985000E-8	6.913464E-3
5.990000E-8	6.622262E-3
5.995000E-8	6.430412E-3
6.000000E-8	6.307079E-3
6.005000E-8	6.212867E-3
6.010000E-8	6.159766E-3
6.015000E-8	6.159766E-3
6.020000E-8	6.176895E-3
6.025000E-8	6.211154E-3
6.030000E-8	6.293376E-3
6.035000E-8	6.411569E-3
6.040000E-8	6.531476E-3
6.045000E-8	6.651382E-3
6.050000E-8	6.788418E-3
6.055000E-8	6.952862E-3
6.060000E-8	7.108740E-3
6.065000E-8	7.233785E-3
6.070000E-8	7.357118E-3
6.075000E-8	7.504432E-3
6.080000E-8	7.626051E-3
6.085000E-8	7.675727E-3
6.090000E-8	7.677440E-3
6.095000E-8	7.648319E-3
6.100000E-8	7.574663E-3
6.105000E-8	7.459895E-3
6.110000E-8	7.322859E-3
6.115000E-8	7.166980E-3
6.120000E-8	6.990547E-3
6.125000E-8	6.824390E-3
6.130000E-8	6.685641E-3
6.135000E-8	6.558883E-3
6.140000E-8	6.461245E-3
6.145000E-8	6.435551E-3
6.150000E-8	6.474949E-3
6.155000E-8	6.538328E-3
6.160000E-8	6.622262E-3
6.165000E-8	6.738743E-3
6.170000E-8	6.865501E-3
6.175000E-8	6.995685E-3
6.180000E-8	7.146425E-3
6.185000E-8	7.297165E-3
6.190000E-8	7.425636E-3
6.195000E-8	7.555820E-3
6.200000E-8	7.686004E-3
6.205000E-8	7.781929E-3
6.210000E-8	7.817901E-3
6.215000E-8	7.800772E-3
6.220000E-8	7.754522E-3
6.225000E-8	7.696282E-3
6.230000E-8	7.608922E-3
6.235000E-8	7.473598E-3
6.240000E-8	7.304016E-3
6.245000E-8	7.131008E-3
6.250000E-8	6.963139E-3
6.255000E-8	6.814113E-3
6.260000E-8	6.687354E-3
6.265000E-8	6.558883E-3
6.270000E-8	6.450967E-3
6.275000E-8	6.428699E-3
6.280000E-8	6.454393E-3
6.285000E-8	6.461245E-3
6.290000E-8	6.486939E-3
6.295000E-8	6.589716E-3
6.300000E-8	6.680503E-3
6.305000E-8	6.706197E-3
6.310000E-8	6.730178E-3
6.315000E-8	6.781567E-3
6.320000E-8	6.824390E-3
6.325000E-8	6.846659E-3
6.330000E-8	6.884344E-3
6.335000E-8	6.928880E-3
6.340000E-8	6.978556E-3
6.345000E-8	7.050500E-3
6.350000E-8	7.165267E-3
6.355000E-8	7.327998E-3
6.360000E-8	7.524987E-3
6.365000E-8	7.725402E-3
6.370000E-8	7.908688E-3
6.375000E-8	8.062853E-3
6.380000E-8	8.163917E-3
6.385000E-8	8.179334E-3
6.390000E-8	8.109103E-3
6.395000E-8	7.960076E-3
6.400000E-8	7.742532E-3
6.405000E-8	7.482163E-3
6.410000E-8	7.199526E-3
6.415000E-8	6.908325E-3
6.420000E-8	6.622262E-3
6.425000E-8	6.394440E-3
6.430000E-8	6.259117E-3
6.435000E-8	6.212867E-3
6.440000E-8	6.253978E-3
6.445000E-8	6.356755E-3
6.450000E-8	6.495504E-3
6.455000E-8	6.656521E-3
6.460000E-8	6.855223E-3
6.465000E-8	7.047074E-3
6.470000E-8	7.194388E-3
6.475000E-8	7.322859E-3
6.480000E-8	7.441052E-3
6.485000E-8	7.524987E-3
6.490000E-8	7.581514E-3
6.495000E-8	7.670588E-3
6.500000E-8	7.783642E-3
6.505000E-8	7.871003E-3
6.510000E-8	7.948086E-3
6.515000E-8	8.042298E-3
6.520000E-8	8.100538E-3
6.525000E-8	8.090260E-3
6.530000E-8	8.067992E-3
6.535000E-8	8.018317E-3
6.540000E-8	7.882994E-3
6.545000E-8	7.677440E-3
6.550000E-8	7.447904E-3
6.555000E-8	7.211517E-3
6.560000E-8	6.985408E-3
6.565000E-8	6.795270E-3
6.570000E-8	6.623975E-3
6.575000E-8	6.469810E-3
6.580000E-8	6.391014E-3
6.585000E-8	6.391014E-3
6.590000E-8	6.418421E-3
6.595000E-8	6.476662E-3
6.600000E-8	6.591429E-3
6.605000E-8	6.731891E-3
6.610000E-8	6.872353E-3
6.615000E-8	7.014528E-3
6.620000E-8	7.165267E-3
6.625000E-8	7.288600E-3
6.630000E-8	7.398229E-3
6.635000E-8	7.506145E-3
6.640000E-8	7.579801E-3
6.645000E-8	7.595218E-3
6.650000E-8	7.554107E-3
6.655000E-8	7.471886E-3
6.660000E-8	7.367396E-3
6.665000E-8	7.235498E-3
6.670000E-8	7.077907E-3
6.675000E-8	6.928880E-3
6.680000E-8	6.805548E-3
6.685000E-8	6.692493E-3
6.690000E-8	6.596568E-3
6.695000E-8	6.540041E-3
6.700000E-8	6.500643E-3
6.705000E-8	6.452680E-3
6.710000E-8	6.432125E-3
6.715000E-8	6.452680E-3
6.720000E-8	6.476662E-3
6.725000E-8	6.497217E-3
6.730000E-8	6.540041E-3
6.735000E-8	6.594855E-3
6.740000E-8	6.661660E-3
6.745000E-8	6.755872E-3
6.750000E-8	6.863788E-3
6.755000E-8	6.978556E-3
6.760000E-8	7.113879E-3
6.765000E-8	7.249202E-3
6.770000E-8	7.327998E-3
6.775000E-8	7.369109E-3
6.780000E-8	7.410219E-3
6.785000E-8	7.418784E-3
6.790000E-8	7.381099E-3
6.795000E-8	7.322859E-3
6.800000E-8	7.257767E-3
6.805000E-8	7.139573E-3
6.810000E-8	6.964852E-3
6.815000E-8	6.788418E-3
6.820000E-8	6.629114E-3
6.825000E-8	6.495504E-3
6.830000E-8	6.392727E-3
6.835000E-8	6.327635E-3
6.840000E-8	6.284811E-3
6.845000E-8	6.243700E-3
6.850000E-8	6.226571E-3
6.855000E-8	6.274533E-3
6.860000E-8	6.372172E-3
6.865000E-8	6.478374E-3
6.870000E-8	6.582864E-3
6.875000E-8	6.699345E-3
6.880000E-8	6.793557E-3
6.885000E-8	6.858649E-3
6.890000E-8	6.930593E-3
6.895000E-8	7.005963E-3
6.900000E-8	7.059065E-3
6.905000E-8	7.108740E-3
6.910000E-8	7.156703E-3
6.915000E-8	7.184110E-3
6.920000E-8	7.213230E-3
6.925000E-8	7.262906E-3
6.930000E-8	7.292026E-3
6.935000E-8	7.259480E-3
6.940000E-8	7.194388E-3
6.945000E-8	7.108740E-3
6.950000E-8	6.968278E-3
6.955000E-8	6.791844E-3
6.960000E-8	6.605133E-3
6.965000E-8	6.413282E-3
6.970000E-8	6.257404E-3
6.975000E-8	6.175182E-3
6.980000E-8	6.149488E-3
6.985000E-8	6.175182E-3
6.990000E-8	6.259117E-3
6.995000E-8	6.370459E-3
7.000000E-8	6.483513E-3
7.005000E-8	6.603420E-3
7.010000E-8	6.723326E-3
7.015000E-8	6.831242E-3
7.020000E-8	6.932306E-3
7.025000E-8	7.021380E-3
7.030000E-8	7.062490E-3
7.035000E-8	7.071055E-3
7.040000E-8	7.069342E-3
7.045000E-8	7.057352E-3
7.050000E-8	7.038509E-3
7.055000E-8	7.036796E-3
7.060000E-8	7.048787E-3
7.065000E-8	7.053926E-3
7.070000E-8	7.057352E-3
7.075000E-8	7.072768E-3
7.080000E-8	7.086472E-3
7.085000E-8	7.083046E-3
7.090000E-8	7.064203E-3
7.095000E-8	7.021380E-3
7.100000E-8	6.946010E-3
7.105000E-8	6.843233E-3
7.110000E-8	6.740456E-3
7.115000E-8	6.665086E-3
7.120000E-8	6.606846E-3
7.125000E-8	6.560596E-3
7.130000E-8	6.531476E-3
7.135000E-8	6.504069E-3
7.140000E-8	6.478374E-3
7.145000E-8	6.488652E-3
7.150000E-8	6.526337E-3
7.155000E-8	6.548605E-3
7.160000E-8	6.558883E-3
7.165000E-8	6.576013E-3
7.170000E-8	6.567448E-3
7.175000E-8	6.534902E-3
7.180000E-8	6.543467E-3
7.185000E-8	6.599994E-3
7.190000E-8	6.668512E-3
7.195000E-8	6.749021E-3
7.200000E-8	6.870640E-3
7.205000E-8	6.995685E-3
7.210000E-8	7.071055E-3
7.215000E-8	7.127583E-3
7.220000E-8	7.202952E-3
7.225000E-8	7.271470E-3
7.230000E-8	7.309155E-3
7.235000E-8	7.341701E-3
7.240000E-8	7.358831E-3
7.245000E-8	7.345127E-3
7.250000E-8	7.312581E-3
7.255000E-8	7.264619E-3
7.260000E-8	7.178971E-3
7.265000E-8	7.071055E-3
7.270000E-8	6.961426E-3
7.275000E-8	6.838094E-3
7.280000E-8	6.711336E-3
7.285000E-8	6.627401E-3
7.290000E-8	6.579439E-3
7.295000E-8	6.557170E-3
7.300000E-8	6.560596E-3
7.305000E-8	6.560596E-3
7.310000E-8	6.557170E-3
7.315000E-8	6.596568E-3
7.320000E-8	6.677077E-3
7.325000E-8	6.740456E-3
7.330000E-8	6.784993E-3
7.335000E-8	6.831242E-3
7.340000E-8	6.856936E-3
7.345000E-8	6.838094E-3
7.350000E-8	6.784993E-3
7.355000E-8	6.723326E-3
7.360000E-8	6.665086E-3
7.365000E-8	6.598281E-3
7.370000E-8	6.492078E-3
7.375000E-8	6.361894E-3
7.380000E-8	6.252265E-3
7.385000E-8	6.147775E-3
7.390000E-8	6.044998E-3
7.395000E-8	5.998748E-3
7.400000E-8	6.022730E-3
7.405000E-8	6.056989E-3
7.410000E-8	6.089535E-3
7.415000E-8	6.156340E-3
7.420000E-8	6.243700E-3
7.425000E-8	6.332774E-3
7.430000E-8	6.416708E-3
7.435000E-8	6.502356E-3
7.440000E-8	6.579439E-3
7.445000E-8	6.644531E-3
7.450000E-8	6.692493E-3
7.455000E-8	6.709623E-3
7.460000E-8	6.706197E-3
7.465000E-8	6.695919E-3
7.470000E-8	6.675364E-3
7.475000E-8	6.656521E-3
7.480000E-8	6.646244E-3
7.485000E-8	6.630827E-3
7.490000E-8	6.606846E-3
7.495000E-8	6.596568E-3
7.500000E-8	6.605133E-3
7.505000E-8	6.601707E-3
7.510000E-8	6.596568E-3
7.515000E-8	6.639392E-3
7.520000E-8	6.709623E-3
7.525000E-8	6.761011E-3
7.530000E-8	6.808974E-3
7.535000E-8	6.879205E-3
7.540000E-8	6.946010E-3
7.545000E-8	6.981982E-3
7.550000E-8	7.000824E-3
7.555000E-8	7.014528E-3
7.560000E-8	7.004250E-3
7.565000E-8	6.973417E-3
7.570000E-8	6.940871E-3
7.575000E-8	6.896334E-3
7.580000E-8	6.851798E-3
7.585000E-8	6.826103E-3
7.590000E-8	6.838094E-3
7.595000E-8	6.872353E-3
7.600000E-8	6.911751E-3
7.605000E-8	6.942584E-3
7.610000E-8	6.968278E-3
7.615000E-8	6.993972E-3
7.620000E-8	6.990547E-3
7.625000E-8	6.937445E-3
7.630000E-8	6.865501E-3
7.635000E-8	6.800409E-3
7.640000E-8	6.711336E-3
7.645000E-8	6.576013E-3
7.650000E-8	6.449254E-3
7.655000E-8	6.367033E-3
7.660000E-8	6.295089E-3
7.665000E-8	6.216293E-3
7.670000E-8	6.135784E-3
7.675000E-8	6.060415E-3
7.680000E-8	6.007313E-3
7.685000E-8	5.985045E-3
7.690000E-8	5.988471E-3
7.695000E-8	6.029582E-3
7.700000E-8	6.120368E-3
7.705000E-8	6.235136E-3
7.710000E-8	6.349903E-3
7.715000E-8	6.497217E-3
7.720000E-8	6.668512E-3
7.725000E-8	6.788418E-3
7.730000E-8	6.877492E-3
7.735000E-8	6.995685E-3
7.740000E-8	7.117305E-3
7.745000E-8	7.194388E-3
7.750000E-8	7.250915E-3
7.755000E-8	7.309155E-3
7.760000E-8	7.329711E-3
7.765000E-8	7.321146E-3
7.770000E-8	7.310868E-3
7.775000E-8	7.297165E-3
7.780000E-8	7.276609E-3
7.785000E-8	7.249202E-3
7.790000E-8	7.184110E-3
7.795000E-8	7.072768E-3
7.800000E-8	6.951149E-3
7.805000E-8	6.814113E-3
7.810000E-8	6.632540E-3
7.815000E-8	6.432125E-3
7.820000E-8	6.288237E-3
7.825000E-8	6.207728E-3
7.830000E-8	6.173469E-3
7.835000E-8	6.190599E-3
7.840000E-8	6.281385E-3
7.845000E-8	6.423560E-3
7.850000E-8	6.593142E-3
7.855000E-8	6.786705E-3
7.860000E-8	6.988834E-3
7.865000E-8	7.172119E-3
7.870000E-8	7.322859E-3
7.875000E-8	7.413645E-3
7.880000E-8	7.422210E-3
7.885000E-8	7.358831E-3
7.890000E-8	7.249202E-3
7.895000E-8	7.105314E-3
7.900000E-8	6.959713E-3
7.905000E-8	6.850085E-3
7.910000E-8	6.771289E-3
7.915000E-8	6.718187E-3
7.920000E-8	6.677077E-3
7.925000E-8	6.659947E-3
7.930000E-8	6.690780E-3
7.935000E-8	6.762724E-3
7.940000E-8	6.827816E-3
7.945000E-8	6.841520E-3
7.950000E-8	6.829529E-3
7.955000E-8	6.798696E-3
7.960000E-8	6.730178E-3
7.965000E-8	6.635966E-3
7.970000E-8	6.540041E-3
7.975000E-8	6.476662E-3
7.980000E-8	6.456106E-3
7.985000E-8	6.456106E-3
7.990000E-8	6.461245E-3
7.995000E-8	6.512633E-3
8.000000E-8	6.623975E-3
8.005000E-8	6.730178E-3
8.010000E-8	6.824390E-3
8.015000E-8	6.966565E-3
8.020000E-8	7.137860E-3
8.025000E-8	7.244063E-3
8.030000E-8	7.264619E-3
8.035000E-8	7.257767E-3
8.040000E-8	7.232073E-3
8.045000E-8	7.165267E-3
8.050000E-8	7.081333E-3
8.055000E-8	7.026519E-3
8.060000E-8	7.023093E-3
8.065000E-8	7.036796E-3
8.070000E-8	7.043648E-3
8.075000E-8	7.052213E-3
8.080000E-8	7.074481E-3
8.085000E-8	7.096749E-3
8.090000E-8	7.091611E-3
8.095000E-8	7.041935E-3
8.100000E-8	6.956288E-3
8.105000E-8	6.865501E-3
8.110000E-8	6.771289E-3
8.115000E-8	6.687354E-3
8.120000E-8	6.611985E-3
8.125000E-8	6.560596E-3
8.130000E-8	6.553744E-3
8.135000E-8	6.588003E-3
8.140000E-8	6.654808E-3
8.145000E-8	6.726752E-3
8.150000E-8	6.808974E-3
8.155000E-8	6.898047E-3
8.160000E-8	6.992260E-3
8.165000E-8	7.074481E-3
8.170000E-8	7.112166E-3
8.175000E-8	7.113879E-3
8.180000E-8	7.071055E-3
8.185000E-8	6.981982E-3
8.190000E-8	6.875779E-3
8.195000E-8	6.805548E-3
8.200000E-8	6.771289E-3
8.205000E-8	6.737030E-3
8.210000E-8	6.719900E-3
8.215000E-8	6.747308E-3
8.220000E-8	6.802122E-3
8.225000E-8	6.870640E-3
8.230000E-8	6.952862E-3
8.235000E-8	7.033370E-3
8.240000E-8	7.081333E-3
8.245000E-8	7.086472E-3
8.250000E-8	7.065916E-3
8.255000E-8	7.029944E-3
8.260000E-8	6.995685E-3
8.265000E-8	6.956288E-3
8.270000E-8	6.886057E-3
8.275000E-8	6.814113E-3
8.280000E-8	6.781567E-3
8.285000E-8	6.757585E-3
8.290000E-8	6.716475E-3
8.295000E-8	6.704484E-3
8.300000E-8	6.738743E-3
8.305000E-8	6.793557E-3
8.310000E-8	6.855223E-3
8.315000E-8	6.928880E-3
8.320000E-8	7.009389E-3
8.325000E-8	7.100175E-3
8.330000E-8	7.206378E-3
8.335000E-8	7.297165E-3
8.340000E-8	7.355405E-3
8.345000E-8	7.379386E-3
8.350000E-8	7.333137E-3
8.355000E-8	7.214943E-3
8.360000E-8	7.071055E-3
8.365000E-8	6.894621E-3
8.370000E-8	6.666799E-3
8.375000E-8	6.452680E-3
8.380000E-8	6.296802E-3
8.385000E-8	6.176895E-3
8.390000E-8	6.089535E-3
8.395000E-8	6.068979E-3
8.400000E-8	6.116942E-3
8.405000E-8	6.200877E-3
8.410000E-8	6.337913E-3
8.415000E-8	6.514346E-3
8.420000E-8	6.687354E-3
8.425000E-8	6.860362E-3
8.430000E-8	7.033370E-3
8.435000E-8	7.182397E-3
8.440000E-8	7.274896E-3
8.445000E-8	7.300591E-3
8.450000E-8	7.259480E-3
8.455000E-8	7.165267E-3
8.460000E-8	7.050500E-3
8.465000E-8	6.930593E-3
8.470000E-8	6.829529E-3
8.475000E-8	6.767863E-3
8.480000E-8	6.754159E-3
8.485000E-8	6.790131E-3
8.490000E-8	6.899760E-3
8.495000E-8	7.052213E-3
8.500000E-8	7.208091E-3
8.505000E-8	7.357118E-3
8.510000E-8	7.509570E-3
8.515000E-8	7.641468E-3
8.520000E-8	7.704847E-3
8.525000E-8	7.691143E-3
8.530000E-8	7.614060E-3
8.535000E-8	7.507857E-3
8.540000E-8	7.379386E-3
8.545000E-8	7.245776E-3
8.550000E-8	7.122444E-3
8.555000E-8	7.019667E-3
8.560000E-8	6.946010E-3
8.565000E-8	6.886057E-3
8.570000E-8	6.836381E-3
8.575000E-8	6.822677E-3
8.580000E-8	6.853511E-3
8.585000E-8	6.886057E-3
8.590000E-8	6.889482E-3
8.595000E-8	6.894621E-3
8.600000E-8	6.927167E-3
8.605000E-8	6.952862E-3
8.610000E-8	6.954575E-3
8.615000E-8	6.971704E-3
8.620000E-8	7.021380E-3
8.625000E-8	7.050500E-3
8.630000E-8	7.053926E-3
8.635000E-8	7.089898E-3
8.640000E-8	7.178971E-3
8.645000E-8	7.235498E-3
8.650000E-8	7.235498E-3
8.655000E-8	7.232073E-3
8.660000E-8	7.238924E-3
8.665000E-8	7.218369E-3
8.670000E-8	7.146425E-3
8.675000E-8	7.035083E-3
8.680000E-8	6.910038E-3
8.685000E-8	6.783280E-3
8.690000E-8	6.677077E-3
8.695000E-8	6.623975E-3
8.700000E-8	6.641105E-3
8.705000E-8	6.689067E-3
8.710000E-8	6.747308E-3
8.715000E-8	6.856936E-3
8.720000E-8	7.004250E-3
8.725000E-8	7.081333E-3
8.730000E-8	7.057352E-3
8.735000E-8	7.019667E-3
8.740000E-8	6.997398E-3
8.745000E-8	6.916890E-3
8.750000E-8	6.795270E-3
8.755000E-8	6.695919E-3
8.760000E-8	6.623975E-3
8.765000E-8	6.543467E-3
8.770000E-8	6.476662E-3
8.775000E-8	6.457819E-3
8.780000E-8	6.493791E-3
8.785000E-8	6.557170E-3
8.790000E-8	6.656521E-3
8.795000E-8	6.788418E-3
8.800000E-8	6.910038E-3
8.805000E-8	6.959713E-3
8.810000E-8	6.956288E-3
8.815000E-8	6.964852E-3
8.820000E-8	6.997398E-3
8.825000E-8	7.026519E-3
8.830000E-8	7.055639E-3
8.835000E-8	7.115592E-3
8.840000E-8	7.185823E-3
8.845000E-8	7.196101E-3
8.850000E-8	7.156703E-3
8.855000E-8	7.131008E-3
8.860000E-8	7.136147E-3
8.865000E-8	7.119018E-3
8.870000E-8	7.072768E-3
8.875000E-8	7.043648E-3
8.880000E-8	7.014528E-3
8.885000E-8	6.951149E-3
8.890000E-8	6.870640E-3
8.895000E-8	6.827816E-3
8.900000E-8	6.834668E-3
8.905000E-8	6.858649E-3
8.910000E-8	6.892908E-3
8.915000E-8	6.928880E-3
8.920000E-8	6.952862E-3
8.925000E-8	6.942584E-3
8.930000E-8	6.894621E-3
8.935000E-8	6.819252E-3
8.940000E-8	6.735317E-3
8.945000E-8	6.634253E-3
8.950000E-8	6.510921E-3
8.955000E-8	6.406431E-3
8.960000E-8	6.356755E-3
8.965000E-8	6.322496E-3
8.970000E-8	6.281385E-3
8.975000E-8	6.293376E-3
8.980000E-8	6.379023E-3
8.985000E-8	6.478374E-3
8.990000E-8	6.574300E-3
8.995000E-8	6.701058E-3
9.000000E-8	6.834668E-3
9.005000E-8	6.913464E-3
9.010000E-8	6.939158E-3
9.015000E-8	6.952862E-3
9.020000E-8	6.922029E-3
9.025000E-8	6.820964E-3
9.030000E-8	6.690780E-3
9.035000E-8	6.598281E-3
9.040000E-8	6.538328E-3
9.045000E-8	6.498930E-3
9.050000E-8	6.485226E-3
9.055000E-8	6.521198E-3
9.060000E-8	6.593142E-3
9.065000E-8	6.673651E-3
9.070000E-8	6.762724E-3
9.075000E-8	6.868927E-3
9.080000E-8	6.995685E-3
9.085000E-8	7.119018E-3
9.090000E-8	7.199526E-3
9.095000E-8	7.237211E-3
9.100000E-8	7.264619E-3
9.105000E-8	7.302303E-3
9.110000E-8	7.331424E-3
9.115000E-8	7.329711E-3
9.120000E-8	7.307442E-3
9.125000E-8	7.298878E-3
9.130000E-8	7.312581E-3
9.135000E-8	7.314294E-3
9.140000E-8	7.290313E-3
9.145000E-8	7.266332E-3
9.150000E-8	7.230360E-3
9.155000E-8	7.149851E-3
9.160000E-8	7.035083E-3
9.165000E-8	6.939158E-3
9.170000E-8	6.877492E-3
9.175000E-8	6.827816E-3
9.180000E-8	6.791844E-3
9.185000E-8	6.800409E-3
9.190000E-8	6.863788E-3
9.195000E-8	6.949436E-3
9.200000E-8	7.033370E-3
9.205000E-8	7.127583E-3
9.210000E-8	7.232073E-3
9.215000E-8	7.310868E-3
9.220000E-8	7.355405E-3
9.225000E-8	7.396516E-3
9.230000E-8	7.429062E-3
9.235000E-8	7.420497E-3
9.240000E-8	7.375960E-3
9.245000E-8	7.322859E-3
9.250000E-8	7.262906E-3
9.255000E-8	7.208091E-3
9.260000E-8	7.173832E-3
9.265000E-8	7.137860E-3
9.270000E-8	7.100175E-3
9.275000E-8	7.103601E-3
9.280000E-8	7.142999E-3
9.285000E-8	7.154990E-3
9.290000E-8	7.141286E-3
9.295000E-8	7.136147E-3
9.300000E-8	7.149851E-3
9.305000E-8	7.148138E-3
9.310000E-8	7.156703E-3
9.315000E-8	7.197814E-3
9.320000E-8	7.225221E-3
9.325000E-8	7.218369E-3
9.330000E-8	7.221795E-3
9.335000E-8	7.249202E-3
9.340000E-8	7.259480E-3
9.345000E-8	7.249202E-3
9.350000E-8	7.233785E-3
9.355000E-8	7.192675E-3
9.360000E-8	7.124157E-3
9.365000E-8	7.065916E-3
9.370000E-8	7.031657E-3
9.375000E-8	7.019667E-3
9.380000E-8	7.047074E-3
9.385000E-8	7.110453E-3
9.390000E-8	7.170406E-3
9.395000E-8	7.237211E-3
9.400000E-8	7.326285E-3
9.405000E-8	7.417071E-3
9.410000E-8	7.480450E-3
9.415000E-8	7.516422E-3
9.420000E-8	7.521561E-3
9.425000E-8	7.482163E-3
9.430000E-8	7.415358E-3
9.435000E-8	7.317720E-3
9.440000E-8	7.177258E-3
9.445000E-8	7.041935E-3
9.450000E-8	6.952862E-3
9.455000E-8	6.862075E-3
9.460000E-8	6.764437E-3
9.465000E-8	6.695919E-3
9.470000E-8	6.653095E-3
9.475000E-8	6.611985E-3
9.480000E-8	6.588003E-3
9.485000E-8	6.586290E-3
9.490000E-8	6.593142E-3
9.495000E-8	6.620549E-3
9.500000E-8	6.663373E-3
9.505000E-8	6.694206E-3
9.510000E-8	6.718187E-3
9.515000E-8	6.759298E-3
9.520000E-8	6.795270E-3
9.525000E-8	6.793557E-3
9.530000E-8	6.766150E-3
9.535000E-8	6.749021E-3
9.540000E-8	6.733604E-3
9.545000E-8	6.707910E-3
9.550000E-8	6.682216E-3
9.555000E-8	6.682216E-3
9.560000E-8	6.714762E-3
9.565000E-8	6.773002E-3
9.570000E-8	6.846659E-3
9.575000E-8	6.906612E-3
9.580000E-8	6.934019E-3
9.585000E-8	6.940871E-3
9.590000E-8	6.954575E-3
9.595000E-8	6.971704E-3
9.600000E-8	6.990547E-3
9.605000E-8	7.014528E-3
9.610000E-8	7.040222E-3
9.615000E-8	7.067629E-3
9.620000E-8	7.088185E-3
9.625000E-8	7.100175E-3
9.630000E-8	7.120731E-3
9.635000E-8	7.160129E-3
9.640000E-8	7.192675E-3
9.645000E-8	7.213230E-3
9.650000E-8	7.220082E-3
9.655000E-8	7.199526E-3
9.660000E-8	7.141286E-3
9.665000E-8	7.076194E-3
9.670000E-8	6.999111E-3
9.675000E-8	6.899760E-3
9.680000E-8	6.790131E-3
9.685000E-8	6.692493E-3
9.690000E-8	6.599994E-3
9.695000E-8	6.541754E-3
9.700000E-8	6.538328E-3
9.705000E-8	6.550318E-3
9.710000E-8	6.543467E-3
9.715000E-8	6.562309E-3
9.720000E-8	6.620549E-3
9.725000E-8	6.653095E-3
9.730000E-8	6.623975E-3
9.735000E-8	6.552031E-3
9.740000E-8	6.476662E-3
9.745000E-8	6.403005E-3
9.750000E-8	6.332774E-3
9.755000E-8	6.272820E-3
9.760000E-8	6.265969E-3
9.765000E-8	6.305367E-3
9.770000E-8	6.355042E-3
9.775000E-8	6.438977E-3
9.780000E-8	6.591429E-3
9.785000E-8	6.779854E-3
9.790000E-8	6.946010E-3
9.795000E-8	7.100175E-3
9.800000E-8	7.261193E-3
9.805000E-8	7.403368E-3
9.810000E-8	7.501006E-3
9.815000E-8	7.554107E-3
9.820000E-8	7.576375E-3
9.825000E-8	7.545542E-3
9.830000E-8	7.478737E-3
9.835000E-8	7.403368E-3
9.840000E-8	7.316007E-3
9.845000E-8	7.208091E-3
9.850000E-8	7.076194E-3
9.855000E-8	6.946010E-3
9.860000E-8	6.831242E-3
9.865000E-8	6.730178E-3
9.870000E-8	6.634253E-3
9.875000E-8	6.560596E-3
9.880000E-8	6.514346E-3
9.885000E-8	6.490365E-3
9.890000E-8	6.485226E-3
9.895000E-8	6.512633E-3
9.900000E-8	6.565735E-3
9.905000E-8	6.610272E-3
9.910000E-8	6.613698E-3
9.915000E-8	6.599994E-3
9.920000E-8	6.593142E-3
9.925000E-8	6.565735E-3
9.930000E-8	6.495504E-3
9.935000E-8	6.426986E-3
9.940000E-8	6.385875E-3
9.945000E-8	6.344764E-3
9.950000E-8	6.295089E-3
9.955000E-8	6.274533E-3
9.960000E-8	6.269395E-3
9.965000E-8	6.260830E-3
9.970000E-8	6.259117E-3
9.975000E-8	6.301941E-3
9.980000E-8	6.391014E-3
9.985000E-8	6.514346E-3
9.990000E-8	6.661660E-3
9.995000E-8	6.827816E-3
1.000000E-7	6.993972E-3
1.000500E-7	7.153277E-3
1.001000E-7	7.309155E-3
1.001500E-7	7.466747E-3
1.002000E-7	7.607209E-3
1.002500E-7	7.692856E-3
1.003000E-7	7.709986E-3
1.003500E-7	7.679152E-3
1.004000E-7	7.622625E-3
1.004500E-7	7.542116E-3
1.005000E-7	7.408506E-3
1.005500E-7	7.221795E-3
1.006000E-7	7.011102E-3
1.006500E-7	6.808974E-3
1.007000E-7	6.634253E-3
1.007500E-7	6.514346E-3
1.008000E-7	6.461245E-3
1.008500E-7	6.444115E-3
1.009000E-7	6.447541E-3
1.009500E-7	6.490365E-3
1.010000E-7	6.557170E-3
1.010500E-7	6.613698E-3
1.011000E-7	6.678790E-3
1.011500E-7	6.779854E-3
1.012000E-7	6.875779E-3
1.012500E-7	6.939158E-3
1.013000E-7	6.983695E-3
1.013500E-7	7.000824E-3
1.014000E-7	6.961426E-3
1.014500E-7	6.904899E-3
1.015000E-7	6.858649E-3
1.015500E-7	6.805548E-3
1.016000E-7	6.752446E-3
1.016500E-7	6.714762E-3
1.017000E-7	6.682216E-3
1.017500E-7	6.656521E-3
1.018000E-7	6.668512E-3
1.018500E-7	6.702771E-3
1.019000E-7	6.733604E-3
1.019500E-7	6.779854E-3
1.020000E-7	6.846659E-3
1.020500E-7	6.889482E-3
1.021000E-7	6.880918E-3
1.021500E-7	6.843233E-3
1.022000E-7	6.788418E-3
1.022500E-7	6.713049E-3
1.023000E-7	6.632540E-3
1.023500E-7	6.564022E-3
1.024000E-7	6.502356E-3
1.024500E-7	6.450967E-3
1.025000E-7	6.423560E-3
1.025500E-7	6.418421E-3
1.026000E-7	6.435551E-3
1.026500E-7	6.492078E-3
1.027000E-7	6.603420E-3
1.027500E-7	6.749021E-3
1.028000E-7	6.899760E-3
1.028500E-7	7.033370E-3
1.029000E-7	7.132721E-3
1.029500E-7	7.184110E-3
1.030000E-7	7.194388E-3
1.030500E-7	7.175545E-3
1.031000E-7	7.136147E-3
1.031500E-7	7.069342E-3
1.032000E-7	6.987121E-3
1.032500E-7	6.915177E-3
1.033000E-7	6.853511E-3
1.033500E-7	6.800409E-3
1.034000E-7	6.774715E-3
1.034500E-7	6.781567E-3
1.035000E-7	6.796983E-3
1.035500E-7	6.827816E-3
1.036000E-7	6.872353E-3
1.036500E-7	6.901473E-3
1.037000E-7	6.918603E-3
1.037500E-7	6.959713E-3
1.038000E-7	7.012815E-3
1.038500E-7	7.036796E-3
1.039000E-7	7.041935E-3
1.039500E-7	7.060778E-3
1.040000E-7	7.076194E-3
1.040500E-7	7.086472E-3
1.041000E-7	7.127583E-3
1.041500E-7	7.178971E-3
1.042000E-7	7.218369E-3
1.042500E-7	7.237211E-3
1.043000E-7	7.230360E-3
1.043500E-7	7.197814E-3
1.044000E-7	7.158416E-3
1.044500E-7	7.108740E-3
1.045000E-7	7.048787E-3
1.045500E-7	7.004250E-3
1.046000E-7	6.971704E-3
1.046500E-7	6.915177E-3
1.047000E-7	6.838094E-3
1.047500E-7	6.800409E-3
1.048000E-7	6.802122E-3
1.048500E-7	6.815826E-3
1.049000E-7	6.844946E-3
1.049500E-7	6.903186E-3
1.050000E-7	6.971704E-3
1.050500E-7	7.012815E-3
1.051000E-7	7.023093E-3
1.051500E-7	7.002537E-3
1.052000E-7	6.956288E-3
1.052500E-7	6.904899E-3
1.053000E-7	6.850085E-3
1.053500E-7	6.793557E-3
1.054000E-7	6.743882E-3
1.054500E-7	6.737030E-3
1.055000E-7	6.755872E-3
1.055500E-7	6.791844E-3
1.056000E-7	6.844946E-3
1.056500E-7	6.906612E-3
1.057000E-7	6.963139E-3
1.057500E-7	7.024806E-3
1.058000E-7	7.108740E-3
1.058500E-7	7.170406E-3
1.059000E-7	7.189249E-3
1.059500E-7	7.180684E-3
1.060000E-7	7.160129E-3
1.060500E-7	7.120731E-3
1.061000E-7	7.067629E-3
1.061500E-7	7.024806E-3
1.062000E-7	6.988834E-3
1.062500E-7	6.952862E-3
1.063000E-7	6.925454E-3
1.063500E-7	6.911751E-3
1.064000E-7	6.892908E-3
1.064500E-7	6.843233E-3
1.065000E-7	6.776428E-3
1.065500E-7	6.737030E-3
1.066000E-7	6.737030E-3
1.066500E-7	6.738743E-3
1.067000E-7	6.718187E-3
1.067500E-7	6.695919E-3
1.068000E-7	6.695919E-3
1.068500E-7	6.704484E-3
1.069000E-7	6.726752E-3
1.069500E-7	6.783280E-3
1.070000E-7	6.856936E-3
1.070500E-7	6.928880E-3
1.071000E-7	7.009389E-3
1.071500E-7	7.105314E-3
1.072000E-7	7.175545E-3
1.072500E-7	7.199526E-3
1.073000E-7	7.184110E-3
1.073500E-7	7.141286E-3
1.074000E-7	7.072768E-3
1.074500E-7	6.985408E-3
1.075000E-7	6.886057E-3
1.075500E-7	6.788418E-3
1.076000E-7	6.702771E-3
1.076500E-7	6.608559E-3
1.077000E-7	6.516059E-3
1.077500E-7	6.474949E-3
1.078000E-7	6.504069E-3
1.078500E-7	6.565735E-3
1.079000E-7	6.639392E-3
1.079500E-7	6.719900E-3
1.080000E-7	6.781567E-3
1.080500E-7	6.817539E-3
1.081000E-7	6.843233E-3
1.081500E-7	6.855223E-3
1.082000E-7	6.855223E-3
1.082500E-7	6.850085E-3
1.083000E-7	6.831242E-3
1.083500E-7	6.788418E-3
1.084000E-7	6.769576E-3
1.084500E-7	6.788418E-3
1.085000E-7	6.795270E-3
1.085500E-7	6.779854E-3
1.086000E-7	6.803835E-3
1.086500E-7	6.858649E-3
1.087000E-7	6.899760E-3
1.087500E-7	6.949436E-3
1.088000E-7	7.028231E-3
1.088500E-7	7.101888E-3
1.089000E-7	7.161842E-3
1.089500E-7	7.221795E-3
1.090000E-7	7.264619E-3
1.090500E-7	7.281748E-3
1.091000E-7	7.297165E-3
1.091500E-7	7.317720E-3
1.092000E-7	7.319433E-3
1.092500E-7	7.312581E-3
1.093000E-7	7.312581E-3
1.093500E-7	7.310868E-3
1.094000E-7	7.290313E-3
1.094500E-7	7.262906E-3
1.095000E-7	7.233785E-3
1.095500E-7	7.223508E-3
1.096000E-7	7.247489E-3
1.096500E-7	7.269757E-3
1.097000E-7	7.271470E-3
1.097500E-7	7.271470E-3
1.098000E-7	7.252628E-3
1.098500E-7	7.197814E-3
1.099000E-7	7.132721E-3
1.099500E-7	7.083046E-3
1.100000E-7	7.029944E-3
1.100500E-7	6.964852E-3
1.101000E-7	6.925454E-3
1.101500E-7	6.947723E-3
1.102000E-7	7.011102E-3
1.102500E-7	7.076194E-3
1.103000E-7	7.108740E-3
1.103500E-7	7.149851E-3
1.104000E-7	7.225221E-3
1.104500E-7	7.273183E-3
1.105000E-7	7.257767E-3
1.105500E-7	7.242350E-3
1.106000E-7	7.244063E-3
1.106500E-7	7.204665E-3
1.107000E-7	7.119018E-3
1.107500E-7	7.052213E-3
1.108000E-7	7.000824E-3
1.108500E-7	6.904899E-3
1.109000E-7	6.791844E-3
1.109500E-7	6.723326E-3
1.110000E-7	6.694206E-3
1.110500E-7	6.680503E-3
1.111000E-7	6.683928E-3
1.111500E-7	6.733604E-3
1.112000E-7	6.807261E-3
1.112500E-7	6.867214E-3
1.113000E-7	6.934019E-3
1.113500E-7	7.014528E-3
1.114000E-7	7.077907E-3
1.114500E-7	7.095037E-3
1.115000E-7	7.093324E-3
1.115500E-7	7.060778E-3
1.116000E-7	6.990547E-3
1.116500E-7	6.913464E-3
1.117000E-7	6.851798E-3
1.117500E-7	6.791844E-3
1.118000E-7	6.745595E-3
1.118500E-7	6.718187E-3
1.119000E-7	6.707910E-3
1.119500E-7	6.745595E-3
1.120000E-7	6.834668E-3
1.120500E-7	6.916890E-3
1.121000E-7	6.988834E-3
1.121500E-7	7.089898E-3
1.122000E-7	7.178971E-3
1.122500E-7	7.189249E-3
1.123000E-7	7.168693E-3
1.123500E-7	7.173832E-3
1.124000E-7	7.187536E-3
1.124500E-7	7.182397E-3
1.125000E-7	7.173832E-3
1.125500E-7	7.172119E-3
1.126000E-7	7.161842E-3
1.126500E-7	7.137860E-3
1.127000E-7	7.110453E-3
1.127500E-7	7.084759E-3
1.128000E-7	7.043648E-3
1.128500E-7	6.978556E-3
1.129000E-7	6.903186E-3
1.129500E-7	6.843233E-3
1.130000E-7	6.776428E-3
1.130500E-7	6.692493E-3
1.131000E-7	6.617123E-3
1.131500E-7	6.567448E-3
1.132000E-7	6.538328E-3
1.132500E-7	6.531476E-3
1.133000E-7	6.541754E-3
1.133500E-7	6.545180E-3
1.134000E-7	6.538328E-3
1.134500E-7	6.524624E-3
1.135000E-7	6.497217E-3
1.135500E-7	6.464671E-3
1.136000E-7	6.450967E-3
1.136500E-7	6.442403E-3
1.137000E-7	6.423560E-3
1.137500E-7	6.418421E-3
1.138000E-7	6.444115E-3
1.138500E-7	6.492078E-3
1.139000E-7	6.576013E-3
1.139500E-7	6.704484E-3
1.140000E-7	6.844946E-3
1.140500E-7	6.956288E-3
1.141000E-7	7.060778E-3
1.141500E-7	7.178971E-3
1.142000E-7	7.262906E-3
1.142500E-7	7.276609E-3
1.143000E-7	7.245776E-3
1.143500E-7	7.187536E-3
1.144000E-7	7.103601E-3
1.144500E-7	6.995685E-3
1.145000E-7	6.877492E-3
1.145500E-7	6.773002E-3
1.146000E-7	6.723326E-3
1.146500E-7	6.730178E-3
1.147000E-7	6.761011E-3
1.147500E-7	6.802122E-3
1.148000E-7	6.867214E-3
1.148500E-7	6.915177E-3
1.149000E-7	6.940871E-3
1.149500E-7	6.958000E-3
1.150000E-7	6.947723E-3
1.150500E-7	6.868927E-3
1.151000E-7	6.764437E-3
1.151500E-7	6.675364E-3
1.152000E-7	6.594855E-3
1.152500E-7	6.526337E-3
1.153000E-7	6.474949E-3
1.153500E-7	6.430412E-3
1.154000E-7	6.435551E-3
1.154500E-7	6.507495E-3
1.155000E-7	6.606846E-3
1.155500E-7	6.702771E-3
1.156000E-7	6.807261E-3
1.156500E-7	6.889482E-3
1.157000E-7	6.925454E-3
1.157500E-7	6.930593E-3
1.158000E-7	6.923741E-3
1.158500E-7	6.899760E-3
1.159000E-7	6.884344E-3
1.159500E-7	6.862075E-3
1.160000E-7	6.807261E-3
1.160500E-7	6.745595E-3
1.161000E-7	6.682216E-3
1.161500E-7	6.610272E-3
1.162000E-7	6.574300E-3
1.162500E-7	6.582864E-3
1.163000E-7	6.593142E-3
1.163500E-7	6.617123E-3
1.164000E-7	6.683928E-3
1.164500E-7	6.738743E-3
1.165000E-7	6.761011E-3
1.165500E-7	6.805548E-3
1.166000E-7	6.867214E-3
1.166500E-7	6.925454E-3
1.167000E-7	7.019667E-3
1.167500E-7	7.132721E-3
1.168000E-7	7.204665E-3
1.168500E-7	7.247489E-3
1.169000E-7	7.280035E-3
1.169500E-7	7.285174E-3
1.170000E-7	7.269757E-3
1.170500E-7	7.281748E-3
1.171000E-7	7.278322E-3
1.171500E-7	7.230360E-3
1.172000E-7	7.175545E-3
1.172500E-7	7.125870E-3
1.173000E-7	7.079620E-3
1.173500E-7	7.086472E-3
1.174000E-7	7.148138E-3
1.174500E-7	7.199526E-3
1.175000E-7	7.228647E-3
1.175500E-7	7.269757E-3
1.176000E-7	7.310868E-3
1.176500E-7	7.322859E-3
1.177000E-7	7.304016E-3
1.177500E-7	7.257767E-3
1.178000E-7	7.204665E-3
1.178500E-7	7.165267E-3
1.179000E-7	7.107027E-3
1.179500E-7	7.012815E-3
1.180000E-7	6.947723E-3
1.180500E-7	6.928880E-3
1.181000E-7	6.899760E-3
1.181500E-7	6.874066E-3
1.182000E-7	6.918603E-3
1.182500E-7	7.012815E-3
1.183000E-7	7.065916E-3
1.183500E-7	7.098462E-3
1.184000E-7	7.125870E-3
1.184500E-7	7.103601E-3
1.185000E-7	7.067629E-3
1.185500E-7	7.074481E-3
1.186000E-7	7.088185E-3
1.186500E-7	7.069342E-3
1.187000E-7	7.038509E-3
1.187500E-7	6.993972E-3
1.188000E-7	6.899760E-3
1.188500E-7	6.800409E-3
1.189000E-7	6.731891E-3
1.189500E-7	6.666799E-3
1.190000E-7	6.611985E-3
1.190500E-7	6.611985E-3
1.191000E-7	6.651382E-3
1.191500E-7	6.716475E-3
1.192000E-7	6.829529E-3
1.192500E-7	6.966565E-3
1.193000E-7	7.071055E-3
1.193500E-7	7.185823E-3
1.194000E-7	7.326285E-3
1.194500E-7	7.435914E-3
1.195000E-7	7.480450E-3
1.195500E-7	7.499293E-3
1.196000E-7	7.504432E-3
1.196500E-7	7.489015E-3
1.197000E-7	7.465034E-3
1.197500E-7	7.465034E-3
1.198000E-7	7.468460E-3
1.198500E-7	7.461608E-3
1.199000E-7	7.461608E-3
1.199500E-7	7.453043E-3
1.200000E-7	7.408506E-3
1.200500E-7	7.339988E-3
1.201000E-7	7.292026E-3
1.201500E-7	7.288600E-3
1.202000E-7	7.283461E-3
1.202500E-7	7.237211E-3
1.203000E-7	7.180684E-3
1.203500E-7	7.131008E-3
1.204000E-7	7.089898E-3
1.204500E-7	7.053926E-3
1.205000E-7	7.026519E-3
1.205500E-7	7.016241E-3
1.206000E-7	7.047074E-3
1.206500E-7	7.136147E-3
1.207000E-7	7.238924E-3
1.207500E-7	7.339988E-3
1.208000E-7	7.449617E-3
1.208500E-7	7.531839E-3
1.209000E-7	7.548968E-3
1.209500E-7	7.550681E-3
1.210000E-7	7.545542E-3
1.210500E-7	7.494154E-3
1.211000E-7	7.405080E-3
1.211500E-7	7.314294E-3
1.212000E-7	7.225221E-3
1.212500E-7	7.115592E-3
1.213000E-7	6.983695E-3
1.213500E-7	6.863788E-3
1.214000E-7	6.802122E-3
1.214500E-7	6.812400E-3
1.215000E-7	6.882631E-3
1.215500E-7	7.000824E-3
1.216000E-7	7.148138E-3
1.216500E-7	7.295452E-3
1.217000E-7	7.415358E-3
1.217500E-7	7.528413E-3
1.218000E-7	7.626051E-3
1.218500E-7	7.663736E-3
1.219000E-7	7.648319E-3
1.219500E-7	7.596931E-3
1.220000E-7	7.509570E-3
1.220500E-7	7.365683E-3
1.221000E-7	7.168693E-3
1.221500E-7	6.949436E-3
1.222000E-7	6.759298E-3
1.222500E-7	6.610272E-3
1.223000E-7	6.498930E-3
1.223500E-7	6.444115E-3
1.224000E-7	6.478374E-3
1.224500E-7	6.582864E-3
1.225000E-7	6.730178E-3
1.225500E-7	6.916890E-3
1.226000E-7	7.134434E-3
1.226500E-7	7.326285E-3
1.227000E-7	7.482163E-3
1.227500E-7	7.605496E-3
1.228000E-7	7.672301E-3
1.228500E-7	7.653458E-3
1.229000E-7	7.566098E-3
1.229500E-7	7.458182E-3
1.230000E-7	7.324572E-3
1.230500E-7	7.149851E-3
1.231000E-7	6.959713E-3
1.231500E-7	6.805548E-3
1.232000E-7	6.706197E-3
1.232500E-7	6.647957E-3
1.233000E-7	6.622262E-3
1.233500E-7	6.630827E-3
1.234000E-7	6.675364E-3
1.234500E-7	6.762724E-3
1.235000E-7	6.867214E-3
1.235500E-7	6.947723E-3
1.236000E-7	6.997398E-3
1.236500E-7	7.016241E-3
1.237000E-7	6.999111E-3
1.237500E-7	6.949436E-3
1.238000E-7	6.872353E-3
1.238500E-7	6.778141E-3
1.239000E-7	6.682216E-3
1.239500E-7	6.601707E-3
1.240000E-7	6.526337E-3
1.240500E-7	6.468097E-3
1.241000E-7	6.447541E-3
1.241500E-7	6.492078E-3
1.242000E-7	6.598281E-3
1.242500E-7	6.745595E-3
1.243000E-7	6.911751E-3
1.243500E-7	7.086472E-3
1.244000E-7	7.257767E-3
1.244500E-7	7.408506E-3
1.245000E-7	7.504432E-3
1.245500E-7	7.569524E-3
1.246000E-7	7.632903E-3
1.246500E-7	7.650032E-3
1.247000E-7	7.576375E-3
1.247500E-7	7.444478E-3
1.248000E-7	7.310868E-3
1.248500E-7	7.184110E-3
1.249000E-7	7.069342E-3
1.249500E-7	6.983695E-3
1.250000E-7	6.930593E-3
1.250500E-7	6.889482E-3
1.251000E-7	6.865501E-3
1.251500E-7	6.877492E-3
1.252000E-7	6.913464E-3
1.252500E-7	6.932306E-3
1.253000E-7	6.944297E-3
1.253500E-7	6.964852E-3
1.254000E-7	6.971704E-3
1.254500E-7	6.954575E-3
1.255000E-7	6.951149E-3
1.255500E-7	6.978556E-3
1.256000E-7	7.002537E-3
1.256500E-7	7.009389E-3
1.257000E-7	7.002537E-3
1.257500E-7	6.993972E-3
1.258000E-7	7.009389E-3
1.258500E-7	7.048787E-3
1.259000E-7	7.071055E-3
1.259500E-7	7.069342E-3
1.260000E-7	7.098462E-3
1.260500E-7	7.160129E-3
1.261000E-7	7.202952E-3
1.261500E-7	7.232073E-3
1.262000E-7	7.278322E-3
1.262500E-7	7.316007E-3
1.263000E-7	7.329711E-3
1.263500E-7	7.355405E-3
1.264000E-7	7.386238E-3
1.264500E-7	7.394803E-3
1.265000E-7	7.382812E-3
1.265500E-7	7.360544E-3
1.266000E-7	7.312581E-3
1.266500E-7	7.240637E-3
1.267000E-7	7.185823E-3
1.267500E-7	7.170406E-3
1.268000E-7	7.180684E-3
1.268500E-7	7.209804E-3
1.269000E-7	7.274896E-3
1.269500E-7	7.377673E-3
1.270000E-7	7.489015E-3
1.270500E-7	7.586653E-3
1.271000E-7	7.662023E-3
1.271500E-7	7.728828E-3
1.272000E-7	7.776791E-3
1.272500E-7	7.797346E-3
1.273000E-7	7.792207E-3
1.273500E-7	7.752809E-3
1.274000E-7	7.675727E-3
1.274500E-7	7.572950E-3
1.275000E-7	7.487302E-3
1.275500E-7	7.406793E-3
1.276000E-7	7.305729E-3
1.276500E-7	7.223508E-3
1.277000E-7	7.173832E-3
1.277500E-7	7.124157E-3
1.278000E-7	7.076194E-3
1.278500E-7	7.055639E-3
1.279000E-7	7.040222E-3
1.279500E-7	7.026519E-3
1.280000E-7	7.052213E-3
1.280500E-7	7.107027E-3
1.281000E-7	7.129296E-3
1.281500E-7	7.107027E-3
1.282000E-7	7.081333E-3
1.282500E-7	7.028231E-3
1.283000E-7	6.946010E-3
1.283500E-7	6.856936E-3
1.284000E-7	6.773002E-3
1.284500E-7	6.704484E-3
1.285000E-7	6.666799E-3
1.285500E-7	6.656521E-3
1.286000E-7	6.661660E-3
1.286500E-7	6.683928E-3
1.287000E-7	6.714762E-3
1.287500E-7	6.742169E-3
1.288000E-7	6.807261E-3
1.288500E-7	6.920316E-3
1.289000E-7	7.043648E-3
1.289500E-7	7.137860E-3
1.290000E-7	7.196101E-3
1.290500E-7	7.211517E-3
1.291000E-7	7.148138E-3
1.291500E-7	7.007676E-3
1.292000E-7	6.826103E-3
1.292500E-7	6.670225E-3
1.293000E-7	6.553744E-3
1.293500E-7	6.462958E-3
1.294000E-7	6.380736E-3
1.294500E-7	6.327635E-3
1.295000E-7	6.303654E-3
1.295500E-7	6.305367E-3
1.296000E-7	6.358468E-3
1.296500E-7	6.461245E-3
1.297000E-7	6.582864E-3
1.297500E-7	6.694206E-3
1.298000E-7	6.790131E-3
1.298500E-7	6.860362E-3
1.299000E-7	6.898047E-3
1.299500E-7	6.920316E-3
1.300000E-7	6.932306E-3
1.300500E-7	6.935732E-3
1.301000E-7	6.964852E-3
1.301500E-7	7.017954E-3
1.302000E-7	7.036796E-3
1.302500E-7	7.012815E-3
1.303000E-7	7.017954E-3
1.303500E-7	7.067629E-3
1.304000E-7	7.115592E-3
1.304500E-7	7.146425E-3
1.305000E-7	7.163555E-3
1.305500E-7	7.148138E-3
1.306000E-7	7.112166E-3
1.306500E-7	7.064203E-3
1.307000E-7	6.993972E-3
1.307500E-7	6.884344E-3
1.308000E-7	6.759298E-3
1.308500E-7	6.632540E-3
1.309000E-7	6.536615E-3
1.309500E-7	6.522911E-3
1.310000E-7	6.569161E-3
1.310500E-7	6.613698E-3
1.311000E-7	6.666799E-3
1.311500E-7	6.776428E-3
1.312000E-7	6.934019E-3
1.312500E-7	7.088185E-3
1.313000E-7	7.242350E-3
1.313500E-7	7.396516E-3
1.314000E-7	7.506145E-3
1.314500E-7	7.550681E-3
1.315000E-7	7.545542E-3
1.315500E-7	7.511283E-3
1.316000E-7	7.444478E-3
1.316500E-7	7.322859E-3
1.317000E-7	7.165267E-3
1.317500E-7	7.004250E-3
1.318000E-7	6.851798E-3
1.318500E-7	6.733604E-3
1.319000E-7	6.670225E-3
1.319500E-7	6.663373E-3
1.320000E-7	6.707910E-3
1.320500E-7	6.791844E-3
1.321000E-7	6.903186E-3
1.321500E-7	7.047074E-3
1.322000E-7	7.206378E-3
1.322500E-7	7.339988E-3
1.323000E-7	7.442765E-3
1.323500E-7	7.528413E-3
1.324000E-7	7.583227E-3
1.324500E-7	7.581514E-3
1.325000E-7	7.550681E-3
1.325500E-7	7.509570E-3
1.326000E-7	7.456469E-3
1.326500E-7	7.396516E-3
1.327000E-7	7.346840E-3
1.327500E-7	7.309155E-3
1.328000E-7	7.271470E-3
1.328500E-7	7.238924E-3
1.329000E-7	7.213230E-3
1.329500E-7	7.192675E-3
1.330000E-7	7.170406E-3
1.330500E-7	7.125870E-3
1.331000E-7	7.057352E-3
1.331500E-7	6.980269E-3
1.332000E-7	6.899760E-3
1.332500E-7	6.800409E-3
1.333000E-7	6.719900E-3
1.333500E-7	6.677077E-3
1.334000E-7	6.661660E-3
1.334500E-7	6.673651E-3
1.335000E-7	6.754159E-3
1.335500E-7	6.899760E-3
1.336000E-7	7.064203E-3
1.336500E-7	7.204665E-3
1.337000E-7	7.317720E-3
1.337500E-7	7.405080E-3
1.338000E-7	7.461608E-3
1.338500E-7	7.478737E-3
1.339000E-7	7.458182E-3
1.339500E-7	7.413645E-3
1.340000E-7	7.353692E-3
1.340500E-7	7.276609E-3
1.341000E-7	7.182397E-3
1.341500E-7	7.088185E-3
1.342000E-7	7.012815E-3
1.342500E-7	6.961426E-3
1.343000E-7	6.940871E-3
1.343500E-7	6.949436E-3
1.344000E-7	6.985408E-3
1.344500E-7	7.038509E-3
1.345000E-7	7.100175E-3
1.345500E-7	7.166980E-3
1.346000E-7	7.230360E-3
1.346500E-7	7.292026E-3
1.347000E-7	7.350266E-3
1.347500E-7	7.387951E-3
1.348000E-7	7.401655E-3
1.348500E-7	7.387951E-3
1.349000E-7	7.321146E-3
1.349500E-7	7.225221E-3
1.350000E-7	7.165267E-3
1.350500E-7	7.158416E-3
1.351000E-7	7.161842E-3
1.351500E-7	7.201239E-3
1.352000E-7	7.281748E-3
1.352500E-7	7.336562E-3
1.353000E-7	7.317720E-3
1.353500E-7	7.300591E-3
1.354000E-7	7.326285E-3
1.354500E-7	7.367396E-3
1.355000E-7	7.396516E-3
1.355500E-7	7.410219E-3
1.356000E-7	7.413645E-3
1.356500E-7	7.391377E-3
1.357000E-7	7.346840E-3
1.357500E-7	7.304016E-3
1.358000E-7	7.293739E-3
1.358500E-7	7.309155E-3
1.359000E-7	7.331424E-3
1.359500E-7	7.379386E-3
1.360000E-7	7.441052E-3
1.360500E-7	7.475311E-3
1.361000E-7	7.470173E-3
1.361500E-7	7.453043E-3
1.362000E-7	7.437627E-3
1.362500E-7	7.405080E-3
1.363000E-7	7.336562E-3
1.363500E-7	7.230360E-3
1.364000E-7	7.093324E-3
1.364500E-7	6.944297E-3
1.365000E-7	6.796983E-3
1.365500E-7	6.670225E-3
1.366000E-7	6.579439E-3
1.366500E-7	6.526337E-3
1.367000E-7	6.516059E-3
1.367500E-7	6.557170E-3
1.368000E-7	6.623975E-3
1.368500E-7	6.682216E-3
1.369000E-7	6.738743E-3
1.369500E-7	6.808974E-3
1.370000E-7	6.867214E-3
1.370500E-7	6.904899E-3
1.371000E-7	6.932306E-3
1.371500E-7	6.944297E-3
1.372000E-7	6.934019E-3
1.372500E-7	6.935732E-3
1.373000E-7	6.959713E-3
1.373500E-7	6.988834E-3
1.374000E-7	7.016241E-3
1.374500E-7	7.041935E-3
1.375000E-7	7.069342E-3
1.375500E-7	7.122444E-3
1.376000E-7	7.202952E-3
1.376500E-7	7.274896E-3
1.377000E-7	7.324572E-3
1.377500E-7	7.393090E-3
1.378000E-7	7.494154E-3
1.378500E-7	7.576375E-3
1.379000E-7	7.622625E-3
1.379500E-7	7.651745E-3
1.380000E-7	7.644893E-3
1.380500E-7	7.557533E-3
1.381000E-7	7.434201E-3
1.381500E-7	7.358831E-3
1.382000E-7	7.305729E-3
1.382500E-7	7.226934E-3
1.383000E-7	7.151564E-3
1.383500E-7	7.120731E-3
1.384000E-7	7.101888E-3
1.384500E-7	7.076194E-3
1.385000E-7	7.081333E-3
1.385500E-7	7.129296E-3
1.386000E-7	7.192675E-3
1.386500E-7	7.252628E-3
1.387000E-7	7.307442E-3
1.387500E-7	7.341701E-3
1.388000E-7	7.324572E-3
1.388500E-7	7.244063E-3
1.389000E-7	7.124157E-3
1.389500E-7	7.017954E-3
1.390000E-7	6.925454E-3
1.390500E-7	6.841520E-3
1.391000E-7	6.779854E-3
1.391500E-7	6.778141E-3
1.392000E-7	6.820964E-3
1.392500E-7	6.889482E-3
1.393000E-7	7.002537E-3
1.393500E-7	7.166980E-3
1.394000E-7	7.338275E-3
1.394500E-7	7.492441E-3
1.395000E-7	7.638042E-3
1.395500E-7	7.752809E-3
1.396000E-7	7.800772E-3
1.396500E-7	7.795633E-3
1.397000E-7	7.745958E-3
1.397500E-7	7.651745E-3
1.398000E-7	7.512996E-3
1.398500E-7	7.351979E-3
1.399000E-7	7.175545E-3
1.399500E-7	7.026519E-3
1.400000E-7	6.947723E-3
1.400500E-7	6.918603E-3
1.401000E-7	6.899760E-3
1.401500E-7	6.903186E-3
1.402000E-7	6.934019E-3
1.402500E-7	6.983695E-3
1.403000E-7	7.060778E-3
1.403500E-7	7.158416E-3
1.404000E-7	7.211517E-3
1.404500E-7	7.211517E-3
1.405000E-7	7.196101E-3
1.405500E-7	7.173832E-3
1.406000E-7	7.137860E-3
1.406500E-7	7.122444E-3
1.407000E-7	7.156703E-3
1.407500E-7	7.213230E-3
1.408000E-7	7.274896E-3
1.408500E-7	7.365683E-3
1.409000E-7	7.487302E-3
1.409500E-7	7.600357E-3
1.410000E-7	7.694569E-3
1.410500E-7	7.768226E-3
1.411000E-7	7.788781E-3
1.411500E-7	7.759661E-3
1.412000E-7	7.733967E-3
1.412500E-7	7.686004E-3
1.413000E-7	7.584940E-3
1.413500E-7	7.468460E-3
1.414000E-7	7.379386E-3
1.414500E-7	7.276609E-3
1.415000E-7	7.144712E-3
1.415500E-7	7.036796E-3
1.416000E-7	6.949436E-3
1.416500E-7	6.850085E-3
1.417000E-7	6.749021E-3
1.417500E-7	6.653095E-3
1.418000E-7	6.558883E-3
1.418500E-7	6.466384E-3
1.419000E-7	6.394440E-3
1.419500E-7	6.353329E-3
1.420000E-7	6.349903E-3
1.420500E-7	6.418421E-3
1.421000E-7	6.560596E-3
1.421500E-7	6.730178E-3
1.422000E-7	6.884344E-3
1.422500E-7	7.035083E-3
1.423000E-7	7.190962E-3
1.423500E-7	7.314294E-3
1.424000E-7	7.382812E-3
1.424500E-7	7.406793E-3
1.425000E-7	7.396516E-3
1.425500E-7	7.336562E-3
1.426000E-7	7.245776E-3
1.426500E-7	7.149851E-3
1.427000E-7	7.043648E-3
1.427500E-7	6.944297E-3
1.428000E-7	6.867214E-3
1.428500E-7	6.819252E-3
1.429000E-7	6.815826E-3
1.429500E-7	6.868927E-3
1.430000E-7	6.971704E-3
1.430500E-7	7.098462E-3
1.431000E-7	7.244063E-3
1.431500E-7	7.420497E-3
1.432000E-7	7.620912E-3
1.432500E-7	7.793920E-3
1.433000E-7	7.886419E-3
1.433500E-7	7.893271E-3
1.434000E-7	7.843596E-3
1.434500E-7	7.737393E-3
1.435000E-7	7.578088E-3
1.435500E-7	7.399942E-3
1.436000E-7	7.225221E-3
1.436500E-7	7.057352E-3
1.437000E-7	6.922029E-3
1.437500E-7	6.851798E-3
1.438000E-7	6.834668E-3
1.438500E-7	6.858649E-3
1.439000E-7	6.910038E-3
1.439500E-7	6.971704E-3
1.440000E-7	7.043648E-3
1.440500E-7	7.119018E-3
1.441000E-7	7.185823E-3
1.441500E-7	7.235498E-3
1.442000E-7	7.280035E-3
1.442500E-7	7.300591E-3
1.443000E-7	7.269757E-3
1.443500E-7	7.225221E-3
1.444000E-7	7.221795E-3
1.444500E-7	7.238924E-3
1.445000E-7	7.252628E-3
1.445500E-7	7.285174E-3
1.446000E-7	7.338275E-3
1.446500E-7	7.374247E-3
1.447000E-7	7.381099E-3
1.447500E-7	7.396516E-3
1.448000E-7	7.387951E-3
1.448500E-7	7.316007E-3
1.449000E-7	7.225221E-3
1.449500E-7	7.142999E-3
1.450000E-7	7.071055E-3
1.450500E-7	7.023093E-3
1.451000E-7	7.002537E-3
1.451500E-7	7.005963E-3
1.452000E-7	7.053926E-3
1.452500E-7	7.146425E-3
1.453000E-7	7.264619E-3
1.453500E-7	7.401655E-3
1.454000E-7	7.562672E-3
1.454500E-7	7.697995E-3
1.455000E-7	7.799059E-3
1.455500E-7	7.893271E-3
1.456000E-7	7.970354E-3
1.456500E-7	8.004613E-3
1.457000E-7	8.016604E-3
1.457500E-7	8.016604E-3
1.458000E-7	7.992622E-3
1.458500E-7	7.929243E-3
1.459000E-7	7.826466E-3
1.459500E-7	7.694569E-3
1.460000E-7	7.566098E-3
1.460500E-7	7.465034E-3
1.461000E-7	7.357118E-3
1.461500E-7	7.256054E-3
1.462000E-7	7.194388E-3
1.462500E-7	7.149851E-3
1.463000E-7	7.086472E-3
1.463500E-7	7.036796E-3
1.464000E-7	7.031657E-3
1.464500E-7	7.040222E-3
1.465000E-7	7.038509E-3
1.465500E-7	7.038509E-3
1.466000E-7	7.036796E-3
1.466500E-7	7.024806E-3
1.467000E-7	7.014528E-3
1.467500E-7	6.987121E-3
1.468000E-7	6.942584E-3
1.468500E-7	6.918603E-3
1.469000E-7	6.911751E-3
1.469500E-7	6.872353E-3
1.470000E-7	6.817539E-3
1.470500E-7	6.791844E-3
1.471000E-7	6.783280E-3
1.471500E-7	6.761011E-3
1.472000E-7	6.749021E-3
1.472500E-7	6.742169E-3
1.473000E-7	6.731891E-3
1.473500E-7	6.735317E-3
1.474000E-7	6.759298E-3
1.474500E-7	6.759298E-3
1.475000E-7	6.738743E-3
1.475500E-7	6.713049E-3
1.476000E-7	6.677077E-3
1.476500E-7	6.629114E-3
1.477000E-7	6.576013E-3
1.477500E-7	6.526337E-3
1.478000E-7	6.471523E-3
1.478500E-7	6.414995E-3
1.479000E-7	6.368746E-3
1.479500E-7	6.358468E-3
1.480000E-7	6.396153E-3
1.480500E-7	6.445828E-3
1.481000E-7	6.493791E-3
1.481500E-7	6.562309E-3
1.482000E-7	6.651382E-3
1.482500E-7	6.755872E-3
1.483000E-7	6.874066E-3
1.483500E-7	6.976843E-3
1.484000E-7	7.047074E-3
1.484500E-7	7.115592E-3
1.485000E-7	7.192675E-3
1.485500E-7	7.256054E-3
1.486000E-7	7.293739E-3
1.486500E-7	7.321146E-3
1.487000E-7	7.331424E-3
1.487500E-7	7.341701E-3
1.488000E-7	7.363970E-3
1.488500E-7	7.360544E-3
1.489000E-7	7.316007E-3
1.489500E-7	7.247489E-3
1.490000E-7	7.165267E-3
1.490500E-7	7.095037E-3
1.491000E-7	7.041935E-3
1.491500E-7	6.997398E-3
1.492000E-7	6.935732E-3
1.492500E-7	6.879205E-3
1.493000E-7	6.839807E-3
1.493500E-7	6.824390E-3
1.494000E-7	6.836381E-3
1.494500E-7	6.868927E-3
1.495000E-7	6.898047E-3
1.495500E-7	6.910038E-3
1.496000E-7	6.916890E-3
1.496500E-7	6.930593E-3
1.497000E-7	6.942584E-3
1.497500E-7	6.944297E-3
1.498000E-7	6.942584E-3
1.498500E-7	6.944297E-3
1.499000E-7	6.949436E-3
1.499500E-7	6.958000E-3
1.500000E-7	6.971704E-3
1.500500E-7	6.999111E-3
1.501000E-7	7.047074E-3
1.501500E-7	7.103601E-3
1.502000E-7	7.129296E-3
1.502500E-7	7.112166E-3
1.503000E-7	7.091611E-3
1.503500E-7	7.084759E-3
1.504000E-7	7.060778E-3
1.504500E-7	7.005963E-3
1.505000E-7	6.963139E-3
1.505500E-7	6.940871E-3
1.506000E-7	6.928880E-3
1.506500E-7	6.923741E-3
1.507000E-7	6.947723E-3
1.507500E-7	6.993972E-3
1.508000E-7	7.067629E-3
1.508500E-7	7.189249E-3
1.509000E-7	7.334850E-3
1.509500E-7	7.468460E-3
1.510000E-7	7.583227E-3
1.510500E-7	7.686004E-3
1.511000E-7	7.752809E-3
1.511500E-7	7.771652E-3
1.512000E-7	7.754522E-3
1.512500E-7	7.691143E-3
1.513000E-7	7.586653E-3
1.513500E-7	7.449617E-3
1.514000E-7	7.316007E-3
1.514500E-7	7.172119E-3
1.515000E-7	7.026519E-3
1.515500E-7	6.915177E-3
1.516000E-7	6.834668E-3
1.516500E-7	6.738743E-3
1.517000E-7	6.642818E-3
1.517500E-7	6.601707E-3
1.518000E-7	6.618836E-3
1.518500E-7	6.663373E-3
1.519000E-7	6.704484E-3
1.519500E-7	6.755872E-3
1.520000E-7	6.834668E-3
1.520500E-7	6.901473E-3
1.521000E-7	6.932306E-3
1.521500E-7	6.954575E-3
1.522000E-7	6.997398E-3
1.522500E-7	7.038509E-3
1.523000E-7	7.076194E-3
1.523500E-7	7.131008E-3
1.524000E-7	7.184110E-3
1.524500E-7	7.204665E-3
1.525000E-7	7.221795E-3
1.525500E-7	7.262906E-3
1.526000E-7	7.304016E-3
1.526500E-7	7.312581E-3
1.527000E-7	7.285174E-3
1.527500E-7	7.216656E-3
1.528000E-7	7.115592E-3
1.528500E-7	6.990547E-3
1.529000E-7	6.862075E-3
1.529500E-7	6.740456E-3
1.530000E-7	6.625688E-3
1.530500E-7	6.522911E-3
1.531000E-7	6.444115E-3
1.531500E-7	6.377310E-3
1.532000E-7	6.322496E-3
1.532500E-7	6.320783E-3
1.533000E-7	6.377310E-3
1.533500E-7	6.449254E-3
1.534000E-7	6.519485E-3
1.534500E-7	6.623975E-3
1.535000E-7	6.738743E-3
1.535500E-7	6.832955E-3
1.536000E-7	6.932306E-3
1.536500E-7	7.041935E-3
1.537000E-7	7.132721E-3
1.537500E-7	7.208091E-3
1.538000E-7	7.269757E-3
1.538500E-7	7.317720E-3
1.539000E-7	7.369109E-3
1.539500E-7	7.446191E-3
1.540000E-7	7.506145E-3
1.540500E-7	7.540404E-3
1.541000E-7	7.562672E-3
1.541500E-7	7.562672E-3
1.542000E-7	7.511283E-3
1.542500E-7	7.425636E-3
1.543000E-7	7.329711E-3
1.543500E-7	7.218369E-3
1.544000E-7	7.107027E-3
1.544500E-7	7.014528E-3
1.545000E-7	6.899760E-3
1.545500E-7	6.767863E-3
1.546000E-7	6.683928E-3
1.546500E-7	6.661660E-3
1.547000E-7	6.644531E-3
1.547500E-7	6.622262E-3
1.548000E-7	6.635966E-3
1.548500E-7	6.682216E-3
1.549000E-7	6.740456E-3
1.549500E-7	6.815826E-3
1.550000E-7	6.896334E-3
1.550500E-7	6.939158E-3
1.551000E-7	6.947723E-3
1.551500E-7	6.966565E-3
1.552000E-7	7.002537E-3
1.552500E-7	7.035083E-3
1.553000E-7	7.071055E-3
1.553500E-7	7.136147E-3
1.554000E-7	7.196101E-3
1.554500E-7	7.213230E-3
1.555000E-7	7.208091E-3
1.555500E-7	7.216656E-3
1.556000E-7	7.233785E-3
1.556500E-7	7.233785E-3
1.557000E-7	7.232073E-3
1.557500E-7	7.242350E-3
1.558000E-7	7.252628E-3
1.558500E-7	7.244063E-3
1.559000E-7	7.223508E-3
1.559500E-7	7.185823E-3
1.560000E-7	7.129296E-3
1.560500E-7	7.048787E-3
1.561000E-7	6.947723E-3
1.561500E-7	6.831242E-3
1.562000E-7	6.733604E-3
1.562500E-7	6.665086E-3
1.563000E-7	6.599994E-3
1.563500E-7	6.553744E-3
1.564000E-7	6.565735E-3
1.564500E-7	6.617123E-3
1.565000E-7	6.670225E-3
1.565500E-7	6.735317E-3
1.566000E-7	6.819252E-3
1.566500E-7	6.884344E-3
1.567000E-7	6.940871E-3
1.567500E-7	7.012815E-3
1.568000E-7	7.069342E-3
1.568500E-7	7.067629E-3
1.569000E-7	7.028231E-3
1.569500E-7	6.992260E-3
1.570000E-7	6.956288E-3
1.570500E-7	6.892908E-3
1.571000E-7	6.808974E-3
1.571500E-7	6.750734E-3
1.572000E-7	6.723326E-3
1.572500E-7	6.685641E-3
1.573000E-7	6.646244E-3
1.573500E-7	6.647957E-3
1.574000E-7	6.665086E-3
1.574500E-7	6.644531E-3
1.575000E-7	6.613698E-3
1.575500E-7	6.622262E-3
1.576000E-7	6.659947E-3
1.576500E-7	6.683928E-3
1.577000E-7	6.709623E-3
1.577500E-7	6.750734E-3
1.578000E-7	6.771289E-3
1.578500E-7	6.750734E-3
1.579000E-7	6.735317E-3
1.579500E-7	6.786705E-3
1.580000E-7	6.887770E-3
1.580500E-7	6.978556E-3
1.581000E-7	7.077907E-3
1.581500E-7	7.216656E-3
1.582000E-7	7.341701E-3
1.582500E-7	7.429062E-3
1.583000E-7	7.514709E-3
1.583500E-7	7.603783E-3
1.584000E-7	7.668875E-3
1.584500E-7	7.721976E-3
1.585000E-7	7.761374E-3
1.585500E-7	7.752809E-3
1.586000E-7	7.687717E-3
1.586500E-7	7.586653E-3
1.587000E-7	7.453043E-3
1.587500E-7	7.310868E-3
1.588000E-7	7.196101E-3
1.588500E-7	7.091611E-3
1.589000E-7	6.980269E-3
1.589500E-7	6.891195E-3
1.590000E-7	6.844946E-3
1.590500E-7	6.822677E-3
1.591000E-7	6.827816E-3
1.591500E-7	6.867214E-3
1.592000E-7	6.911751E-3
1.592500E-7	6.942584E-3
1.593000E-7	7.019667E-3
1.593500E-7	7.131008E-3
1.594000E-7	7.187536E-3
1.594500E-7	7.163555E-3
1.595000E-7	7.127583E-3
1.595500E-7	7.101888E-3
1.596000E-7	7.048787E-3
1.596500E-7	6.971704E-3
1.597000E-7	6.899760E-3
1.597500E-7	6.839807E-3
1.598000E-7	6.808974E-3
1.598500E-7	6.808974E-3
1.599000E-7	6.819252E-3
1.599500E-7	6.862075E-3
1.600000E-7	6.973417E-3
1.600500E-7	7.122444E-3
1.601000E-7	7.268044E-3
1.601500E-7	7.405080E-3
1.602000E-7	7.531839E-3
1.602500E-7	7.620912E-3
1.603000E-7	7.667162E-3
1.603500E-7	7.665449E-3
1.604000E-7	7.643181E-3
1.604500E-7	7.603783E-3
1.605000E-7	7.543829E-3
1.605500E-7	7.473598E-3
1.606000E-7	7.408506E-3
1.606500E-7	7.316007E-3
1.607000E-7	7.189249E-3
1.607500E-7	7.084759E-3
1.608000E-7	7.036796E-3
1.608500E-7	7.007676E-3
1.609000E-7	6.981982E-3
1.609500E-7	6.987121E-3
1.610000E-7	7.002537E-3
1.610500E-7	7.014528E-3
1.611000E-7	7.047074E-3
1.611500E-7	7.059065E-3
1.612000E-7	7.000824E-3
1.612500E-7	6.892908E-3
1.613000E-7	6.791844E-3
1.613500E-7	6.702771E-3
1.614000E-7	6.610272E-3
1.614500E-7	6.538328E-3
1.615000E-7	6.498930E-3
1.615500E-7	6.497217E-3
1.616000E-7	6.514346E-3
1.616500E-7	6.558883E-3
1.617000E-7	6.642818E-3
1.617500E-7	6.778141E-3
1.618000E-7	6.928880E-3
1.618500E-7	7.062490E-3
1.619000E-7	7.190962E-3
1.619500E-7	7.314294E-3
1.620000E-7	7.410219E-3
1.620500E-7	7.459895E-3
1.621000E-7	7.459895E-3
1.621500E-7	7.403368E-3
1.622000E-7	7.305729E-3
1.622500E-7	7.204665E-3
1.623000E-7	7.103601E-3
1.623500E-7	6.988834E-3
1.624000E-7	6.880918E-3
1.624500E-7	6.805548E-3
1.625000E-7	6.757585E-3
1.625500E-7	6.762724E-3
1.626000E-7	6.817539E-3
1.626500E-7	6.875779E-3
1.627000E-7	6.918603E-3
1.627500E-7	6.963139E-3
1.628000E-7	6.993972E-3
1.628500E-7	6.978556E-3
1.629000E-7	6.939158E-3
1.629500E-7	6.889482E-3
1.630000E-7	6.820964E-3
1.630500E-7	6.745595E-3
1.631000E-7	6.678790E-3
1.631500E-7	6.625688E-3
1.632000E-7	6.576013E-3
1.632500E-7	6.531476E-3
1.633000E-7	6.507495E-3
1.633500E-7	6.553744E-3
1.634000E-7	6.661660E-3
1.634500E-7	6.764437E-3
1.635000E-7	6.853511E-3
1.635500E-7	6.947723E-3
1.636000E-7	6.999111E-3
1.636500E-7	6.971704E-3
1.637000E-7	6.928880E-3
1.637500E-7	6.908325E-3
1.638000E-7	6.874066E-3
1.638500E-7	6.832955E-3
1.639000E-7	6.814113E-3
1.639500E-7	6.791844E-3
1.640000E-7	6.774715E-3
1.640500E-7	6.762724E-3
1.641000E-7	6.738743E-3
1.641500E-7	6.723326E-3
1.642000E-7	6.731891E-3
1.642500E-7	6.735317E-3
1.643000E-7	6.726752E-3
1.643500E-7	6.745595E-3
1.644000E-7	6.788418E-3
1.644500E-7	6.803835E-3
1.645000E-7	6.793557E-3
1.645500E-7	6.802122E-3
1.646000E-7	6.850085E-3
1.646500E-7	6.922029E-3
1.647000E-7	6.990547E-3
1.647500E-7	7.028231E-3
1.648000E-7	7.047074E-3
1.648500E-7	7.069342E-3
1.649000E-7	7.086472E-3
1.649500E-7	7.113879E-3
1.650000E-7	7.170406E-3
1.650500E-7	7.220082E-3
1.651000E-7	7.244063E-3
1.651500E-7	7.285174E-3
1.652000E-7	7.334850E-3
1.652500E-7	7.351979E-3
1.653000E-7	7.362257E-3
1.653500E-7	7.405080E-3
1.654000E-7	7.439339E-3
1.654500E-7	7.437627E-3
1.655000E-7	7.423923E-3
1.655500E-7	7.387951E-3
1.656000E-7	7.321146E-3
1.656500E-7	7.285174E-3
1.657000E-7	7.305729E-3
1.657500E-7	7.321146E-3
1.658000E-7	7.298878E-3
1.658500E-7	7.278322E-3
1.659000E-7	7.269757E-3
1.659500E-7	7.273183E-3
1.660000E-7	7.288600E-3
1.660500E-7	7.290313E-3
1.661000E-7	7.276609E-3
1.661500E-7	7.285174E-3
1.662000E-7	7.305729E-3
1.662500E-7	7.290313E-3
1.663000E-7	7.261193E-3
1.663500E-7	7.256054E-3
1.664000E-7	7.252628E-3
1.664500E-7	7.233785E-3
1.665000E-7	7.237211E-3
1.665500E-7	7.261193E-3
1.666000E-7	7.273183E-3
1.666500E-7	7.268044E-3
1.667000E-7	7.252628E-3
1.667500E-7	7.240637E-3
1.668000E-7	7.233785E-3
1.668500E-7	7.216656E-3
1.669000E-7	7.168693E-3
1.669500E-7	7.127583E-3
1.670000E-7	7.132721E-3
1.670500E-7	7.153277E-3
1.671000E-7	7.154990E-3
1.671500E-7	7.148138E-3
1.672000E-7	7.156703E-3
1.672500E-7	7.192675E-3
1.673000E-7	7.235498E-3
1.673500E-7	7.266332E-3
1.674000E-7	7.286887E-3
1.674500E-7	7.285174E-3
1.675000E-7	7.218369E-3
1.675500E-7	7.105314E-3
1.676000E-7	6.993972E-3
1.676500E-7	6.886057E-3
1.677000E-7	6.764437E-3
1.677500E-7	6.675364E-3
1.678000E-7	6.622262E-3
1.678500E-7	6.570874E-3
1.679000E-7	6.533189E-3
1.679500E-7	6.569161E-3
1.680000E-7	6.663373E-3
1.680500E-7	6.771289E-3
1.681000E-7	6.906612E-3
1.681500E-7	7.077907E-3
1.682000E-7	7.247489E-3
1.682500E-7	7.398229E-3
1.683000E-7	7.547255E-3
1.683500E-7	7.660310E-3
1.684000E-7	7.701421E-3
1.684500E-7	7.677440E-3
1.685000E-7	7.614060E-3
1.685500E-7	7.523274E-3
1.686000E-7	7.423923E-3
1.686500E-7	7.312581E-3
1.687000E-7	7.196101E-3
1.687500E-7	7.086472E-3
1.688000E-7	6.969991E-3
1.688500E-7	6.846659E-3
1.689000E-7	6.771289E-3
1.689500E-7	6.769576E-3
1.690000E-7	6.791844E-3
1.690500E-7	6.824390E-3
1.691000E-7	6.898047E-3
1.691500E-7	6.995685E-3
1.692000E-7	7.083046E-3
1.692500E-7	7.156703E-3
1.693000E-7	7.192675E-3
1.693500E-7	7.172119E-3
1.694000E-7	7.120731E-3
1.694500E-7	7.057352E-3
1.695000E-7	6.961426E-3
1.695500E-7	6.850085E-3
1.696000E-7	6.783280E-3
1.696500E-7	6.754159E-3
1.697000E-7	6.733604E-3
1.697500E-7	6.723326E-3
1.698000E-7	6.735317E-3
1.698500E-7	6.747308E-3
1.699000E-7	6.754159E-3
1.699500E-7	6.761011E-3
1.700000E-7	6.764437E-3
1.700500E-7	6.771289E-3
1.701000E-7	6.771289E-3
1.701500E-7	6.759298E-3
1.702000E-7	6.738743E-3
1.702500E-7	6.706197E-3
1.703000E-7	6.677077E-3
1.703500E-7	6.678790E-3
1.704000E-7	6.735317E-3
1.704500E-7	6.827816E-3
1.705000E-7	6.923741E-3
1.705500E-7	7.019667E-3
1.706000E-7	7.125870E-3
1.706500E-7	7.230360E-3
1.707000E-7	7.321146E-3
1.707500E-7	7.372534E-3
1.708000E-7	7.355405E-3
1.708500E-7	7.297165E-3
1.709000E-7	7.230360E-3
1.709500E-7	7.144712E-3
1.710000E-7	7.031657E-3
1.710500E-7	6.925454E-3
1.711000E-7	6.839807E-3
1.711500E-7	6.774715E-3
1.712000E-7	6.738743E-3
1.712500E-7	6.718187E-3
1.713000E-7	6.685641E-3
1.713500E-7	6.644531E-3
1.714000E-7	6.627401E-3
1.714500E-7	6.627401E-3
1.715000E-7	6.618836E-3
1.715500E-7	6.654808E-3
1.716000E-7	6.757585E-3
1.716500E-7	6.850085E-3
1.717000E-7	6.913464E-3
1.717500E-7	7.004250E-3
1.718000E-7	7.100175E-3
1.718500E-7	7.151564E-3
1.719000E-7	7.201239E-3
1.719500E-7	7.276609E-3
1.720000E-7	7.317720E-3
1.720500E-7	7.288600E-3
1.721000E-7	7.240637E-3
1.721500E-7	7.178971E-3
1.722000E-7	7.074481E-3
1.722500E-7	6.939158E-3
1.723000E-7	6.778141E-3
1.723500E-7	6.601707E-3
1.724000E-7	6.447541E-3
1.724500E-7	6.327635E-3
1.725000E-7	6.211154E-3
1.725500E-7	6.116942E-3
1.726000E-7	6.067266E-3
1.726500E-7	6.044998E-3
1.727000E-7	6.044998E-3
1.727500E-7	6.086109E-3
1.728000E-7	6.151201E-3
1.728500E-7	6.209441E-3
1.729000E-7	6.279672E-3
1.729500E-7	6.367033E-3
1.730000E-7	6.435551E-3
1.730500E-7	6.488652E-3
1.731000E-7	6.569161E-3
1.731500E-7	6.690780E-3
1.732000E-7	6.807261E-3
1.732500E-7	6.889482E-3
1.733000E-7	6.956288E-3
1.733500E-7	7.012815E-3
1.734000E-7	7.079620E-3
1.734500E-7	7.137860E-3
1.735000E-7	7.165267E-3
1.735500E-7	7.160129E-3
1.736000E-7	7.136147E-3
1.736500E-7	7.112166E-3
1.737000E-7	7.067629E-3
1.737500E-7	6.995685E-3
1.738000E-7	6.937445E-3
1.738500E-7	6.899760E-3
1.739000E-7	6.872353E-3
1.739500E-7	6.865501E-3
1.740000E-7	6.880918E-3
1.740500E-7	6.892908E-3
1.741000E-7	6.898047E-3
1.741500E-7	6.908325E-3
1.742000E-7	6.922029E-3
1.742500E-7	6.920316E-3
1.743000E-7	6.916890E-3
1.743500E-7	6.911751E-3
1.744000E-7	6.891195E-3
1.744500E-7	6.832955E-3
1.745000E-7	6.750734E-3
1.745500E-7	6.654808E-3
1.746000E-7	6.533189E-3
1.746500E-7	6.385875E-3
1.747000E-7	6.271108E-3
1.747500E-7	6.219719E-3
1.748000E-7	6.206015E-3
1.748500E-7	6.223145E-3
1.749000E-7	6.307079E-3
1.749500E-7	6.449254E-3
1.750000E-7	6.630827E-3
1.750500E-7	6.843233E-3
1.751000E-7	7.069342E-3
1.751500E-7	7.293739E-3
1.752000E-7	7.490728E-3
1.752500E-7	7.622625E-3
1.753000E-7	7.672301E-3
1.753500E-7	7.677440E-3
1.754000E-7	7.643181E-3
1.754500E-7	7.536978E-3
1.755000E-7	7.377673E-3
1.755500E-7	7.247489E-3
1.756000E-7	7.134434E-3
1.756500E-7	7.005963E-3
1.757000E-7	6.906612E-3
1.757500E-7	6.884344E-3
1.758000E-7	6.884344E-3
1.758500E-7	6.880918E-3
1.759000E-7	6.904899E-3
1.759500E-7	6.959713E-3
1.760000E-7	7.005963E-3
1.760500E-7	7.052213E-3
1.761000E-7	7.112166E-3
1.761500E-7	7.161842E-3
1.762000E-7	7.192675E-3
1.762500E-7	7.223508E-3
1.763000E-7	7.242350E-3
1.763500E-7	7.240637E-3
1.764000E-7	7.230360E-3
1.764500E-7	7.221795E-3
1.765000E-7	7.202952E-3
1.765500E-7	7.202952E-3
1.766000E-7	7.220082E-3
1.766500E-7	7.202952E-3
1.767000E-7	7.146425E-3
1.767500E-7	7.079620E-3
1.768000E-7	7.011102E-3
1.768500E-7	6.915177E-3
1.769000E-7	6.812400E-3
1.769500E-7	6.725039E-3
1.770000E-7	6.642818E-3
1.770500E-7	6.565735E-3
1.771000E-7	6.504069E-3
1.771500E-7	6.462958E-3
1.772000E-7	6.449254E-3
1.772500E-7	6.459532E-3
1.773000E-7	6.490365E-3
1.773500E-7	6.536615E-3
1.774000E-7	6.608559E-3
1.774500E-7	6.707910E-3
1.775000E-7	6.827816E-3
1.775500E-7	6.958000E-3
1.776000E-7	7.076194E-3
1.776500E-7	7.161842E-3
1.777000E-7	7.202952E-3
1.777500E-7	7.213230E-3
1.778000E-7	7.213230E-3
1.778500E-7	7.185823E-3
1.779000E-7	7.120731E-3
1.779500E-7	7.055639E-3
1.780000E-7	7.004250E-3
1.780500E-7	6.939158E-3
1.781000E-7	6.867214E-3
1.781500E-7	6.808974E-3
1.782000E-7	6.757585E-3
1.782500E-7	6.707910E-3
1.783000E-7	6.683928E-3
1.783500E-7	6.678790E-3
1.784000E-7	6.682216E-3
1.784500E-7	6.699345E-3
1.785000E-7	6.730178E-3
1.785500E-7	6.778141E-3
1.786000E-7	6.858649E-3
1.786500E-7	6.959713E-3
1.787000E-7	7.062490E-3
1.787500E-7	7.166980E-3
1.788000E-7	7.269757E-3
1.788500E-7	7.346840E-3
1.789000E-7	7.393090E-3
1.789500E-7	7.453043E-3
1.790000E-7	7.507857E-3
1.790500E-7	7.519848E-3
1.791000E-7	7.518135E-3
1.791500E-7	7.528413E-3
1.792000E-7	7.512996E-3
1.792500E-7	7.437627E-3
1.793000E-7	7.312581E-3
1.793500E-7	7.170406E-3
1.794000E-7	7.031657E-3
1.794500E-7	6.922029E-3
1.795000E-7	6.841520E-3
1.795500E-7	6.798696E-3
1.796000E-7	6.802122E-3
1.796500E-7	6.843233E-3
1.797000E-7	6.868927E-3
1.797500E-7	6.892908E-3
1.798000E-7	6.947723E-3
1.798500E-7	7.007676E-3
1.799000E-7	7.029944E-3
1.799500E-7	7.019667E-3
1.800000E-7	7.002537E-3
1.800500E-7	6.963139E-3
1.801000E-7	6.891195E-3
1.801500E-7	6.791844E-3
1.802000E-7	6.666799E-3
1.802500E-7	6.531476E-3
1.803000E-7	6.437264E-3
1.803500E-7	6.392727E-3
1.804000E-7	6.368746E-3
1.804500E-7	6.356755E-3
1.805000E-7	6.385875E-3
1.805500E-7	6.457819E-3
1.806000E-7	6.560596E-3
1.806500E-7	6.666799E-3
1.807000E-7	6.786705E-3
1.807500E-7	6.934019E-3
1.808000E-7	7.098462E-3
1.808500E-7	7.225221E-3
1.809000E-7	7.278322E-3
1.809500E-7	7.269757E-3
1.810000E-7	7.232073E-3
1.810500E-7	7.166980E-3
1.811000E-7	7.074481E-3
1.811500E-7	6.947723E-3
1.812000E-7	6.802122E-3
1.812500E-7	6.651382E-3
1.813000E-7	6.490365E-3
1.813500E-7	6.355042E-3
1.814000E-7	6.288237E-3
1.814500E-7	6.271108E-3
1.815000E-7	6.271108E-3
1.815500E-7	6.310505E-3
1.816000E-7	6.403005E-3
1.816500E-7	6.526337E-3
1.817000E-7	6.665086E-3
1.817500E-7	6.824390E-3
1.818000E-7	6.975130E-3
1.818500E-7	7.120731E-3
1.819000E-7	7.280035E-3
1.819500E-7	7.399942E-3
1.820000E-7	7.451330E-3
1.820500E-7	7.470173E-3
1.821000E-7	7.454756E-3
1.821500E-7	7.403368E-3
1.822000E-7	7.365683E-3
1.822500E-7	7.353692E-3
1.823000E-7	7.298878E-3
1.823500E-7	7.196101E-3
1.824000E-7	7.122444E-3
1.824500E-7	7.084759E-3
1.825000E-7	7.045361E-3
1.825500E-7	7.023093E-3
1.826000E-7	7.057352E-3
1.826500E-7	7.117305E-3
1.827000E-7	7.163555E-3
1.827500E-7	7.225221E-3
1.828000E-7	7.319433E-3
1.828500E-7	7.410219E-3
1.829000E-7	7.466747E-3
1.829500E-7	7.501006E-3
1.830000E-7	7.504432E-3
1.830500E-7	7.463321E-3
1.831000E-7	7.381099E-3
1.831500E-7	7.297165E-3
1.832000E-7	7.211517E-3
1.832500E-7	7.101888E-3
1.833000E-7	6.981982E-3
1.833500E-7	6.884344E-3
1.834000E-7	6.819252E-3
1.834500E-7	6.778141E-3
1.835000E-7	6.761011E-3
1.835500E-7	6.766150E-3
1.836000E-7	6.788418E-3
1.836500E-7	6.832955E-3
1.837000E-7	6.908325E-3
1.837500E-7	7.000824E-3
1.838000E-7	7.105314E-3
1.838500E-7	7.220082E-3
1.839000E-7	7.336562E-3
1.839500E-7	7.441052E-3
1.840000E-7	7.530126E-3
1.840500E-7	7.596931E-3
1.841000E-7	7.626051E-3
1.841500E-7	7.627764E-3
1.842000E-7	7.614060E-3
1.842500E-7	7.600357E-3
1.843000E-7	7.598644E-3
1.843500E-7	7.607209E-3
1.844000E-7	7.600357E-3
1.844500E-7	7.548968E-3
1.845000E-7	7.494154E-3
1.845500E-7	7.442765E-3
1.846000E-7	7.369109E-3
1.846500E-7	7.273183E-3
1.847000E-7	7.180684E-3
1.847500E-7	7.100175E-3
1.848000E-7	7.033370E-3
1.848500E-7	6.978556E-3
1.849000E-7	6.915177E-3
1.849500E-7	6.870640E-3
1.850000E-7	6.877492E-3
1.850500E-7	6.887770E-3
1.851000E-7	6.879205E-3
1.851500E-7	6.911751E-3
1.852000E-7	6.983695E-3
1.852500E-7	7.043648E-3
1.853000E-7	7.103601E-3
1.853500E-7	7.177258E-3
1.854000E-7	7.225221E-3
1.854500E-7	7.242350E-3
1.855000E-7	7.244063E-3
1.855500E-7	7.233785E-3
1.856000E-7	7.199526E-3
1.856500E-7	7.154990E-3
1.857000E-7	7.095037E-3
1.857500E-7	7.031657E-3
1.858000E-7	6.973417E-3
1.858500E-7	6.896334E-3
1.859000E-7	6.791844E-3
1.859500E-7	6.714762E-3
1.860000E-7	6.670225E-3
1.860500E-7	6.634253E-3
1.861000E-7	6.601707E-3
1.861500E-7	6.579439E-3
1.862000E-7	6.567448E-3
1.862500E-7	6.601707E-3
1.863000E-7	6.687354E-3
1.863500E-7	6.755872E-3
1.864000E-7	6.803835E-3
1.864500E-7	6.872353E-3
1.865000E-7	6.939158E-3
1.865500E-7	6.951149E-3
1.866000E-7	6.942584E-3
1.866500E-7	6.928880E-3
1.867000E-7	6.868927E-3
1.867500E-7	6.779854E-3
1.868000E-7	6.742169E-3
1.868500E-7	6.726752E-3
1.869000E-7	6.685641E-3
1.869500E-7	6.666799E-3
1.870000E-7	6.702771E-3
1.870500E-7	6.747308E-3
1.871000E-7	6.819252E-3
1.871500E-7	6.942584E-3
1.872000E-7	7.062490E-3
1.872500E-7	7.149851E-3
1.873000E-7	7.259480E-3
1.873500E-7	7.386238E-3
1.874000E-7	7.478737E-3
1.874500E-7	7.547255E-3
1.875000E-7	7.591792E-3
1.875500E-7	7.584940E-3
1.876000E-7	7.528413E-3
1.876500E-7	7.430775E-3
1.877000E-7	7.286887E-3
1.877500E-7	7.136147E-3
1.878000E-7	7.016241E-3
1.878500E-7	6.884344E-3
1.879000E-7	6.731891E-3
1.879500E-7	6.630827E-3
1.880000E-7	6.569161E-3
1.880500E-7	6.490365E-3
1.881000E-7	6.418421E-3
1.881500E-7	6.399579E-3
1.882000E-7	6.387588E-3
1.882500E-7	6.373885E-3
1.883000E-7	6.396153E-3
1.883500E-7	6.433838E-3
1.884000E-7	6.447541E-3
1.884500E-7	6.454393E-3
1.885000E-7	6.469810E-3
1.885500E-7	6.492078E-3
1.886000E-7	6.517772E-3
1.886500E-7	6.552031E-3
1.887000E-7	6.591429E-3
1.887500E-7	6.629114E-3
1.888000E-7	6.649669E-3
1.888500E-7	6.641105E-3
1.889000E-7	6.632540E-3
1.889500E-7	6.635966E-3
1.890000E-7	6.608559E-3
1.890500E-7	6.564022E-3
1.891000E-7	6.564022E-3
1.891500E-7	6.610272E-3
1.892000E-7	6.632540E-3
1.892500E-7	6.639392E-3
1.893000E-7	6.677077E-3
1.893500E-7	6.725039E-3
1.894000E-7	6.773002E-3
1.894500E-7	6.829529E-3
1.895000E-7	6.851798E-3
1.895500E-7	6.810687E-3
1.896000E-7	6.742169E-3
1.896500E-7	6.680503E-3
1.897000E-7	6.599994E-3
1.897500E-7	6.516059E-3
1.898000E-7	6.481800E-3
1.898500E-7	6.490365E-3
1.899000E-7	6.502356E-3
1.899500E-7	6.519485E-3
1.900000E-7	6.576013E-3
1.900500E-7	6.663373E-3
1.901000E-7	6.745595E-3
1.901500E-7	6.834668E-3
1.902000E-7	6.951149E-3
1.902500E-7	7.065916E-3
1.903000E-7	7.141286E-3
1.903500E-7	7.175545E-3
1.904000E-7	7.184110E-3
1.904500E-7	7.141286E-3
1.905000E-7	7.041935E-3
1.905500E-7	6.949436E-3
1.906000E-7	6.891195E-3
1.906500E-7	6.834668E-3
1.907000E-7	6.771289E-3
1.907500E-7	6.735317E-3
1.908000E-7	6.725039E-3
1.908500E-7	6.697632E-3
1.909000E-7	6.661660E-3
1.909500E-7	6.673651E-3
1.910000E-7	6.731891E-3
1.910500E-7	6.761011E-3
1.911000E-7	6.733604E-3
1.911500E-7	6.687354E-3
1.912000E-7	6.651382E-3
1.912500E-7	6.622262E-3
1.913000E-7	6.599994E-3
1.913500E-7	6.608559E-3
1.914000E-7	6.665086E-3
1.914500E-7	6.745595E-3
1.915000E-7	6.831242E-3
1.915500E-7	6.934019E-3
1.916000E-7	7.060778E-3
1.916500E-7	7.175545E-3
1.917000E-7	7.247489E-3
1.917500E-7	7.295452E-3
1.918000E-7	7.319433E-3
1.918500E-7	7.266332E-3
1.919000E-7	7.131008E-3
1.919500E-7	6.964852E-3
1.920000E-7	6.807261E-3
1.920500E-7	6.654808E-3
1.921000E-7	6.498930E-3
1.921500E-7	6.380736E-3
1.922000E-7	6.315644E-3
1.922500E-7	6.277959E-3
1.923000E-7	6.245413E-3
1.923500E-7	6.250552E-3
1.924000E-7	6.308792E-3
1.924500E-7	6.368746E-3
1.925000E-7	6.401292E-3
1.925500E-7	6.444115E-3
1.926000E-7	6.504069E-3
1.926500E-7	6.543467E-3
1.927000E-7	6.548605E-3
1.927500E-7	6.548605E-3
1.928000E-7	6.557170E-3
1.928500E-7	6.565735E-3
1.929000E-7	6.550318E-3
1.929500E-7	6.536615E-3
1.930000E-7	6.570874E-3
1.930500E-7	6.665086E-3
1.931000E-7	6.783280E-3
1.931500E-7	6.898047E-3
1.932000E-7	7.009389E-3
1.932500E-7	7.129296E-3
1.933000E-7	7.220082E-3
1.933500E-7	7.264619E-3
1.934000E-7	7.285174E-3
1.934500E-7	7.304016E-3
1.935000E-7	7.281748E-3
1.935500E-7	7.218369E-3
1.936000E-7	7.144712E-3
1.936500E-7	7.062490E-3
1.937000E-7	6.956288E-3
1.937500E-7	6.853511E-3
1.938000E-7	6.774715E-3
1.938500E-7	6.714762E-3
1.939000E-7	6.675364E-3
1.939500E-7	6.682216E-3
1.940000E-7	6.699345E-3
1.940500E-7	6.718187E-3
1.941000E-7	6.759298E-3
1.941500E-7	6.839807E-3
1.942000E-7	6.916890E-3
1.942500E-7	6.963139E-3
1.943000E-7	6.966565E-3
1.943500E-7	6.916890E-3
1.944000E-7	6.815826E-3
1.944500E-7	6.685641E-3
1.945000E-7	6.526337E-3
1.945500E-7	6.355042E-3
1.946000E-7	6.211154E-3
1.946500E-7	6.113516E-3
1.947000E-7	6.056989E-3
1.947500E-7	6.024443E-3
1.948000E-7	6.017591E-3
1.948500E-7	6.055276E-3
1.949000E-7	6.140923E-3
1.949500E-7	6.274533E-3
1.950000E-7	6.416708E-3
1.950500E-7	6.533189E-3
1.951000E-7	6.646244E-3
1.951500E-7	6.761011E-3
1.952000E-7	6.853511E-3
1.952500E-7	6.901473E-3
1.953000E-7	6.922029E-3
1.953500E-7	6.940871E-3
1.954000E-7	6.952862E-3
1.954500E-7	6.968278E-3
1.955000E-7	6.992260E-3
1.955500E-7	7.026519E-3
1.956000E-7	7.045361E-3
1.956500E-7	7.038509E-3
1.957000E-7	7.014528E-3
1.957500E-7	6.983695E-3
1.958000E-7	6.947723E-3
1.958500E-7	6.908325E-3
1.959000E-7	6.875779E-3
1.959500E-7	6.851798E-3
1.960000E-7	6.836381E-3
1.960500E-7	6.855223E-3
1.961000E-7	6.899760E-3
1.961500E-7	6.937445E-3
1.962000E-7	6.956288E-3
1.962500E-7	6.968278E-3
1.963000E-7	6.973417E-3
1.963500E-7	6.958000E-3
1.964000E-7	6.920316E-3
1.964500E-7	6.848372E-3
1.965000E-7	6.735317E-3
1.965500E-7	6.586290E-3
1.966000E-7	6.421847E-3
1.966500E-7	6.250552E-3
1.967000E-7	6.094674E-3
1.967500E-7	5.974767E-3
1.968000E-7	5.907962E-3
1.968500E-7	5.899397E-3
1.969000E-7	5.928518E-3
1.969500E-7	5.993610E-3
1.970000E-7	6.099813E-3
1.970500E-7	6.245413E-3
1.971000E-7	6.411569E-3
1.971500E-7	6.603420E-3
1.972000E-7	6.803835E-3
1.972500E-7	6.951149E-3
1.973000E-7	7.011102E-3
1.973500E-7	7.033370E-3
1.974000E-7	7.057352E-3
1.974500E-7	7.064203E-3
1.975000E-7	7.055639E-3
1.975500E-7	7.036796E-3
1.976000E-7	6.995685E-3
1.976500E-7	6.947723E-3
1.977000E-7	6.925454E-3
1.977500E-7	6.932306E-3
1.978000E-7	6.958000E-3
1.978500E-7	6.999111E-3
1.979000E-7	7.040222E-3
1.979500E-7	7.074481E-3
1.980000E-7	7.088185E-3
1.980500E-7	7.064203E-3
1.981000E-7	6.976843E-3
1.981500E-7	6.851798E-3
1.982000E-7	6.737030E-3
1.982500E-7	6.629114E-3
1.983000E-7	6.534902E-3
1.983500E-7	6.481800E-3
1.984000E-7	6.469810E-3
1.984500E-7	6.481800E-3
1.985000E-7	6.522911E-3
1.985500E-7	6.603420E-3
1.986000E-7	6.677077E-3
1.986500E-7	6.737030E-3
1.987000E-7	6.790131E-3
1.987500E-7	6.829529E-3
1.988000E-7	6.846659E-3
1.988500E-7	6.860362E-3
1.989000E-7	6.863788E-3
1.989500E-7	6.851798E-3
1.990000E-7	6.851798E-3
1.990500E-7	6.875779E-3
1.991000E-7	6.910038E-3
1.991500E-7	6.964852E-3
1.992000E-7	7.038509E-3
1.992500E-7	7.093324E-3
1.993000E-7	7.112166E-3
1.993500E-7	7.149851E-3
1.994000E-7	7.226934E-3
1.994500E-7	7.305729E-3
1.995000E-7	7.358831E-3
1.995500E-7	7.393090E-3
1.996000E-7	7.411932E-3
1.996500E-7	7.399942E-3
1.997000E-7	7.355405E-3
1.997500E-7	7.285174E-3
1.998000E-7	7.206378E-3
1.998500E-7	7.132721E-3
1.999000E-7	7.065916E-3
1.999500E-7	6.995685E-3
2.000000E-7	6.925454E-3
