Study Name	Tungsten_Kyocera
Sample Name	2024-02-05
Run Name	spot00
Operator	Angus+Samantha
Date	2/5/2024
Time	15:26
Sign	FIX
Grating Spacing	03.40um
Channel	3
Number Traces	10000
Files in Batch	1
Batch Number	40
dt	50.000001E-12
time stamp (ms)	4:08:06 PM
	
Time	Amplitude
0.000000E+0	4.821951E-3
5.000000E-11	4.880191E-3
1.000000E-10	4.991533E-3
1.500000E-10	5.161114E-3
2.000000E-10	5.370094E-3
2.500000E-10	5.563657E-3
3.000000E-10	5.755507E-3
3.500000E-10	5.925089E-3
4.000000E-10	6.033005E-3
4.500000E-10	6.086106E-3
5.000000E-10	6.113514E-3
5.500000E-10	6.094671E-3
6.000000E-10	6.026154E-3
6.500000E-10	5.959349E-3
7.000000E-10	5.923377E-3
7.500000E-10	5.883979E-3
8.000000E-10	5.822313E-3
8.500000E-10	5.772637E-3
9.000000E-10	5.743517E-3
9.500000E-10	5.740091E-3
1.000000E-9	5.762359E-3
1.050000E-9	5.782915E-3
1.100000E-9	5.777776E-3
1.150000E-9	5.736665E-3
1.200000E-9	5.656156E-3
1.250000E-9	5.548240E-3
1.300000E-9	5.424908E-3
1.350000E-9	5.313566E-3
1.400000E-9	5.200512E-3
1.450000E-9	5.089170E-3
1.500000E-9	5.001810E-3
1.550000E-9	4.953848E-3
1.600000E-9	4.960699E-3
1.650000E-9	5.039495E-3
1.700000E-9	5.157689E-3
1.750000E-9	5.284447E-3
1.800000E-9	5.445464E-3
1.850000E-9	5.640740E-3
1.900000E-9	5.796619E-3
1.950000E-9	5.885692E-3
2.000000E-9	5.955923E-3
2.050000E-9	6.027866E-3
2.100000E-9	6.063838E-3
2.150000E-9	6.056986E-3
2.200000E-9	6.015875E-3
2.250000E-9	5.945644E-3
2.300000E-9	5.878838E-3
2.350000E-9	5.830876E-3
2.400000E-9	5.781200E-3
2.450000E-9	5.734951E-3
2.500000E-9	5.733238E-3
2.550000E-9	5.776062E-3
2.600000E-9	5.836015E-3
2.650000E-9	5.902820E-3
2.700000E-9	5.983329E-3
2.750000E-9	6.065551E-3
2.800000E-9	6.139208E-3
2.850000E-9	6.207726E-3
2.900000E-9	6.267679E-3
2.950000E-9	6.303651E-3
3.000000E-9	6.320781E-3
3.050000E-9	6.343049E-3
3.100000E-9	6.361891E-3
3.150000E-9	6.370456E-3
3.200000E-9	6.356752E-3
3.250000E-9	6.324206E-3
3.300000E-9	6.274531E-3
3.350000E-9	6.199161E-3
3.400000E-9	6.110088E-3
3.450000E-9	6.034718E-3
3.500000E-9	5.954210E-3
3.550000E-9	5.849720E-3
3.600000E-9	5.731527E-3
3.650000E-9	5.621898E-3
3.700000E-9	5.515696E-3
3.750000E-9	5.423196E-3
3.800000E-9	5.400928E-3
3.850000E-9	5.455742E-3
3.900000E-9	5.525973E-3
3.950000E-9	5.601342E-3
4.000000E-9	5.724674E-3
4.050000E-9	5.883978E-3
4.100000E-9	6.033005E-3
4.150000E-9	6.173466E-3
4.200000E-9	6.322493E-3
4.250000E-9	6.469806E-3
4.300000E-9	6.570870E-3
4.350000E-9	6.606842E-3
4.400000E-9	6.596564E-3
4.450000E-9	6.546889E-3
4.500000E-9	6.469806E-3
4.550000E-9	6.370455E-3
4.600000E-9	6.262540E-3
4.650000E-9	6.158050E-3
4.700000E-9	6.065551E-3
4.750000E-9	5.991894E-3
4.800000E-9	5.957636E-3
4.850000E-9	5.938793E-3
4.900000E-9	5.918238E-3
4.950000E-9	5.902821E-3
5.000000E-9	5.895970E-3
5.050000E-9	5.878840E-3
5.100000E-9	5.880553E-3
5.150000E-9	5.894256E-3
5.200000E-9	5.887404E-3
5.250000E-9	5.878840E-3
5.300000E-9	5.877127E-3
5.350000E-9	5.863423E-3
5.400000E-9	5.827451E-3
5.450000E-9	5.801757E-3
5.500000E-9	5.794905E-3
5.550000E-9	5.782914E-3
5.600000E-9	5.812034E-3
5.650000E-9	5.890830E-3
5.700000E-9	5.962774E-3
5.750000E-9	6.007311E-3
5.800000E-9	6.075829E-3
5.850000E-9	6.168328E-3
5.900000E-9	6.240271E-3
5.950000E-9	6.276243E-3
6.000000E-9	6.289947E-3
6.050000E-9	6.283095E-3
6.100000E-9	6.253974E-3
6.150000E-9	6.200873E-3
6.200000E-9	6.144346E-3
6.250000E-9	6.108374E-3
6.300000E-9	6.072402E-3
6.350000E-9	6.021014E-3
6.400000E-9	5.979903E-3
6.450000E-9	5.961061E-3
6.500000E-9	5.952496E-3
6.550000E-9	5.961061E-3
6.600000E-9	5.978191E-3
6.650000E-9	6.000459E-3
6.700000E-9	6.031292E-3
6.750000E-9	6.068977E-3
6.800000E-9	6.075828E-3
6.850000E-9	6.058699E-3
6.900000E-9	6.051847E-3
6.950000E-9	6.060411E-3
7.000000E-9	6.056985E-3
7.050000E-9	6.055272E-3
7.100000E-9	6.091244E-3
7.150000E-9	6.147772E-3
7.200000E-9	6.197447E-3
7.250000E-9	6.241984E-3
7.300000E-9	6.298512E-3
7.350000E-9	6.337910E-3
7.400000E-9	6.349900E-3
7.450000E-9	6.329345E-3
7.500000E-9	6.253975E-3
7.550000E-9	6.127217E-3
7.600000E-9	6.012449E-3
7.650000E-9	5.930228E-3
7.700000E-9	5.844580E-3
7.750000E-9	5.786339E-3
7.800000E-9	5.788052E-3
7.850000E-9	5.820598E-3
7.900000E-9	5.863422E-3
7.950000E-9	5.933653E-3
8.000000E-9	6.043281E-3
8.050000E-9	6.147771E-3
8.100000E-9	6.226567E-3
8.150000E-9	6.277956E-3
8.200000E-9	6.301937E-3
8.250000E-9	6.291660E-3
8.300000E-9	6.229994E-3
8.350000E-9	6.108374E-3
8.400000E-9	5.957635E-3
8.450000E-9	5.827451E-3
8.500000E-9	5.700693E-3
8.550000E-9	5.591064E-3
8.600000E-9	5.532824E-3
8.650000E-9	5.529398E-3
8.700000E-9	5.531111E-3
8.750000E-9	5.531111E-3
8.800000E-9	5.555093E-3
8.850000E-9	5.579074E-3
8.900000E-9	5.580787E-3
8.950000E-9	5.589352E-3
9.000000E-9	5.613334E-3
9.050000E-9	5.625324E-3
9.100000E-9	5.633889E-3
9.150000E-9	5.654444E-3
9.200000E-9	5.685277E-3
9.250000E-9	5.741804E-3
9.300000E-9	5.815461E-3
9.350000E-9	5.913099E-3
9.400000E-9	6.031292E-3
9.450000E-9	6.154624E-3
9.500000E-9	6.255687E-3
9.550000E-9	6.325918E-3
9.600000E-9	6.367029E-3
9.650000E-9	6.348186E-3
9.700000E-9	6.283094E-3
9.750000E-9	6.192308E-3
9.800000E-9	6.084393E-3
9.850000E-9	5.961061E-3
9.900000E-9	5.846293E-3
9.950000E-9	5.752081E-3
1.000000E-8	5.681851E-3
1.005000E-8	5.654444E-3
1.010000E-8	5.664721E-3
1.015000E-8	5.704119E-3
1.020000E-8	5.788053E-3
1.025000E-8	5.930228E-3
1.030000E-8	6.092957E-3
1.035000E-8	6.219715E-3
1.040000E-8	6.296798E-3
1.045000E-8	6.355038E-3
1.050000E-8	6.380732E-3
1.055000E-8	6.349899E-3
1.060000E-8	6.245409E-3
1.065000E-8	6.110086E-3
1.070000E-8	5.988467E-3
1.075000E-8	5.875413E-3
1.080000E-8	5.762358E-3
1.085000E-8	5.690415E-3
1.090000E-8	5.678424E-3
1.095000E-8	5.709257E-3
1.100000E-8	5.776062E-3
1.105000E-8	5.878839E-3
1.110000E-8	5.991893E-3
1.115000E-8	6.075828E-3
1.120000E-8	6.139206E-3
1.125000E-8	6.183743E-3
1.130000E-8	6.194021E-3
1.135000E-8	6.171752E-3
1.140000E-8	6.125503E-3
1.145000E-8	6.036430E-3
1.150000E-8	5.925088E-3
1.155000E-8	5.827450E-3
1.160000E-8	5.748655E-3
1.165000E-8	5.688702E-3
1.170000E-8	5.683563E-3
1.175000E-8	5.745229E-3
1.180000E-8	5.853145E-3
1.185000E-8	6.027866E-3
1.190000E-8	6.283095E-3
1.195000E-8	6.603416E-3
1.200000E-8	7.017949E-3
1.205000E-8	7.602063E-3
1.210000E-8	8.383167E-3
1.215000E-8	9.333852E-3
1.220000E-8	1.044555E-2
1.225000E-8	1.174739E-2
1.230000E-8	1.321710E-2
1.235000E-8	1.477417E-2
1.240000E-8	1.630383E-2
1.245000E-8	1.772900E-2
1.250000E-8	1.899144E-2
1.255000E-8	1.999009E-2
1.260000E-8	2.067013E-2
1.265000E-8	2.102814E-2
1.270000E-8	2.103499E-2
1.275000E-8	2.065643E-2
1.280000E-8	1.995069E-2
1.285000E-8	1.899830E-2
1.290000E-8	1.784377E-2
1.295000E-8	1.656249E-2
1.300000E-8	1.524866E-2
1.305000E-8	1.398622E-2
1.310000E-8	1.281799E-2
1.315000E-8	1.180392E-2
1.320000E-8	1.095430E-2
1.325000E-8	1.028111E-2
1.330000E-8	9.816903E-3
1.335000E-8	9.571952E-3
1.340000E-8	9.517137E-3
1.345000E-8	9.645609E-3
1.350000E-8	9.943662E-3
1.355000E-8	1.033079E-2
1.360000E-8	1.076759E-2
1.365000E-8	1.125921E-2
1.370000E-8	1.178679E-2
1.375000E-8	1.228355E-2
1.380000E-8	1.271864E-2
1.385000E-8	1.307151E-2
1.390000E-8	1.329590E-2
1.395000E-8	1.338498E-2
1.400000E-8	1.334558E-2
1.405000E-8	1.316914E-2
1.410000E-8	1.286253E-2
1.415000E-8	1.247026E-2
1.420000E-8	1.202147E-2
1.425000E-8	1.154356E-2
1.430000E-8	1.106736E-2
1.435000E-8	1.058945E-2
1.440000E-8	1.012352E-2
1.445000E-8	9.703851E-3
1.450000E-8	9.313299E-3
1.455000E-8	8.943302E-3
1.460000E-8	8.660665E-3
1.465000E-8	8.487657E-3
1.470000E-8	8.396871E-3
1.475000E-8	8.395157E-3
1.480000E-8	8.513351E-3
1.485000E-8	8.698349E-3
1.490000E-8	8.933023E-3
1.495000E-8	9.256770E-3
1.500000E-8	9.647323E-3
1.505000E-8	1.003274E-2
1.510000E-8	1.042158E-2
1.515000E-8	1.082926E-2
1.520000E-8	1.117527E-2
1.525000E-8	1.142879E-2
1.530000E-8	1.161721E-2
1.535000E-8	1.173369E-2
1.540000E-8	1.171999E-2
1.545000E-8	1.158981E-2
1.550000E-8	1.138254E-2
1.555000E-8	1.110333E-2
1.560000E-8	1.075046E-2
1.565000E-8	1.032908E-2
1.570000E-8	9.876859E-3
1.575000E-8	9.422928E-3
1.580000E-8	8.982700E-3
1.585000E-8	8.559602E-3
1.590000E-8	8.163911E-3
1.595000E-8	7.829886E-3
1.600000E-8	7.586647E-3
1.605000E-8	7.478731E-3
1.610000E-8	7.480444E-3
1.615000E-8	7.586646E-3
1.620000E-8	7.814468E-3
1.625000E-8	8.182752E-3
1.630000E-8	8.636683E-3
1.635000E-8	9.121447E-3
1.640000E-8	9.643896E-3
1.645000E-8	1.015949E-2
1.650000E-8	1.058602E-2
1.655000E-8	1.092861E-2
1.660000E-8	1.118726E-2
1.665000E-8	1.131402E-2
1.670000E-8	1.130032E-2
1.675000E-8	1.119926E-2
1.680000E-8	1.102453E-2
1.685000E-8	1.075560E-2
1.690000E-8	1.040616E-2
1.695000E-8	9.995053E-3
1.700000E-8	9.532557E-3
1.705000E-8	9.035802E-3
1.710000E-8	8.539047E-3
1.715000E-8	8.067986E-3
1.720000E-8	7.651739E-3
1.725000E-8	7.293733E-3
1.730000E-8	7.005957E-3
1.735000E-8	6.814107E-3
1.740000E-8	6.733598E-3
1.745000E-8	6.745588E-3
1.750000E-8	6.867207E-3
1.755000E-8	7.091603E-3
1.760000E-8	7.372527E-3
1.765000E-8	7.679144E-3
1.770000E-8	8.038863E-3
1.775000E-8	8.427703E-3
1.780000E-8	8.765154E-3
1.785000E-8	9.061494E-3
1.790000E-8	9.332140E-3
1.795000E-8	9.522278E-3
1.800000E-8	9.611351E-3
1.805000E-8	9.642185E-3
1.810000E-8	9.613065E-3
1.815000E-8	9.506863E-3
1.820000E-8	9.347559E-3
1.825000E-8	9.133441E-3
1.830000E-8	8.833675E-3
1.835000E-8	8.491085E-3
1.840000E-8	8.155347E-3
1.845000E-8	7.816183E-3
1.850000E-8	7.473594E-3
1.855000E-8	7.187531E-3
1.860000E-8	6.963134E-3
1.865000E-8	6.784987E-3
1.870000E-8	6.697626E-3
1.875000E-8	6.709616E-3
1.880000E-8	6.802115E-3
1.885000E-8	7.004243E-3
1.890000E-8	7.307434E-3
1.895000E-8	7.632894E-3
1.900000E-8	7.954929E-3
1.905000E-8	8.302657E-3
1.910000E-8	8.631544E-3
1.915000E-8	8.864505E-3
1.920000E-8	9.018671E-3
1.925000E-8	9.107745E-3
1.930000E-8	9.124875E-3
1.935000E-8	9.064922E-3
1.940000E-8	8.943303E-3
1.945000E-8	8.760018E-3
1.950000E-8	8.542473E-3
1.955000E-8	8.307799E-3
1.960000E-8	8.037153E-3
1.965000E-8	7.732249E-3
1.970000E-8	7.420492E-3
1.975000E-8	7.108735E-3
1.980000E-8	6.810682E-3
1.985000E-8	6.552026E-3
1.990000E-8	6.341333E-3
1.995000E-8	6.171751E-3
2.000000E-8	6.075826E-3
2.005000E-8	6.074113E-3
2.010000E-8	6.144344E-3
2.015000E-8	6.274528E-3
2.020000E-8	6.505775E-3
2.025000E-8	6.822671E-3
2.030000E-8	7.173825E-3
2.035000E-8	7.521553E-3
2.040000E-8	7.850439E-3
2.045000E-8	8.163909E-3
2.050000E-8	8.444832E-3
2.055000E-8	8.650386E-3
2.060000E-8	8.772006E-3
2.065000E-8	8.823394E-3
2.070000E-8	8.797700E-3
2.075000E-8	8.679507E-3
2.080000E-8	8.518491E-3
2.085000E-8	8.343770E-3
2.090000E-8	8.126226E-3
2.095000E-8	7.862432E-3
2.100000E-8	7.595212E-3
2.105000E-8	7.314289E-3
2.110000E-8	7.019661E-3
2.115000E-8	6.755867E-3
2.120000E-8	6.521193E-3
2.125000E-8	6.291658E-3
2.130000E-8	6.104946E-3
2.135000E-8	5.978188E-3
2.140000E-8	5.885688E-3
2.145000E-8	5.839438E-3
2.150000E-8	5.883975E-3
2.155000E-8	6.002168E-3
2.160000E-8	6.175175E-3
2.165000E-8	6.432117E-3
2.170000E-8	6.781559E-3
2.175000E-8	7.144704E-3
2.180000E-8	7.468451E-3
2.185000E-8	7.766505E-3
2.190000E-8	8.038864E-3
2.195000E-8	8.252983E-3
2.200000E-8	8.386593E-3
2.205000E-8	8.432843E-3
2.210000E-8	8.390020E-3
2.215000E-8	8.259837E-3
2.220000E-8	8.032015E-3
2.225000E-8	7.739101E-3
2.230000E-8	7.429058E-3
2.235000E-8	7.108736E-3
2.240000E-8	6.783276E-3
2.245000E-8	6.485223E-3
2.250000E-8	6.240271E-3
2.255000E-8	6.048420E-3
2.260000E-8	5.916522E-3
2.265000E-8	5.841152E-3
2.270000E-8	5.820596E-3
2.275000E-8	5.890827E-3
2.280000E-8	6.062121E-3
2.285000E-8	6.305359E-3
2.290000E-8	6.611977E-3
2.295000E-8	6.968270E-3
2.300000E-8	7.355396E-3
2.305000E-8	7.747661E-3
2.310000E-8	8.124510E-3
2.315000E-8	8.449971E-3
2.320000E-8	8.684645E-3
2.325000E-8	8.840524E-3
2.330000E-8	8.909042E-3
2.335000E-8	8.833673E-3
2.340000E-8	8.593861E-3
2.345000E-8	8.268401E-3
2.350000E-8	7.891553E-3
2.355000E-8	7.459891E-3
2.360000E-8	7.017950E-3
2.365000E-8	6.642815E-3
2.370000E-8	6.361891E-3
2.375000E-8	6.159763E-3
2.380000E-8	6.041569E-3
2.385000E-8	6.009022E-3
2.390000E-8	6.079252E-3
2.395000E-8	6.235130E-3
2.400000E-8	6.430405E-3
2.405000E-8	6.622255E-3
2.410000E-8	6.815817E-3
2.415000E-8	7.007667E-3
2.420000E-8	7.146416E-3
2.425000E-8	7.238915E-3
2.430000E-8	7.304007E-3
2.435000E-8	7.358821E-3
2.440000E-8	7.418775E-3
2.445000E-8	7.504423E-3
2.450000E-8	7.605487E-3
2.455000E-8	7.701412E-3
2.460000E-8	7.816180E-3
2.465000E-8	7.944652E-3
2.470000E-8	8.050855E-3
2.475000E-8	8.112521E-3
2.480000E-8	8.112521E-3
2.485000E-8	8.050855E-3
2.490000E-8	7.927522E-3
2.495000E-8	7.763079E-3
2.500000E-8	7.574655E-3
2.505000E-8	7.363962E-3
2.510000E-8	7.122436E-3
2.515000E-8	6.853503E-3
2.520000E-8	6.587996E-3
2.525000E-8	6.373877E-3
2.530000E-8	6.209434E-3
2.535000E-8	6.079249E-3
2.540000E-8	6.015870E-3
2.545000E-8	6.041564E-3
2.550000E-8	6.127211E-3
2.555000E-8	6.250543E-3
2.560000E-8	6.421838E-3
2.565000E-8	6.635956E-3
2.570000E-8	6.865491E-3
2.575000E-8	7.108730E-3
2.580000E-8	7.365673E-3
2.585000E-8	7.629467E-3
2.590000E-8	7.872706E-3
2.595000E-8	8.085112E-3
2.600000E-8	8.261547E-3
2.605000E-8	8.395157E-3
2.610000E-8	8.458537E-3
2.615000E-8	8.437982E-3
2.620000E-8	8.345483E-3
2.625000E-8	8.213586E-3
2.630000E-8	8.018310E-3
2.635000E-8	7.763081E-3
2.640000E-8	7.494148E-3
2.645000E-8	7.225215E-3
2.650000E-8	6.935726E-3
2.655000E-8	6.647950E-3
2.660000E-8	6.447535E-3
2.665000E-8	6.368739E-3
2.670000E-8	6.373877E-3
2.675000E-8	6.462950E-3
2.680000E-8	6.671929E-3
2.685000E-8	6.988824E-3
2.690000E-8	7.341691E-3
2.695000E-8	7.672290E-3
2.700000E-8	8.006315E-3
2.705000E-8	8.318071E-3
2.710000E-8	8.532190E-3
2.715000E-8	8.640106E-3
2.720000E-8	8.717189E-3
2.725000E-8	8.746310E-3
2.730000E-8	8.641820E-3
2.735000E-8	8.446545E-3
2.740000E-8	8.235853E-3
2.745000E-8	7.985763E-3
2.750000E-8	7.684284E-3
2.755000E-8	7.387945E-3
2.760000E-8	7.108734E-3
2.765000E-8	6.850079E-3
2.770000E-8	6.651377E-3
2.775000E-8	6.519480E-3
2.780000E-8	6.394435E-3
2.785000E-8	6.274528E-3
2.790000E-8	6.243694E-3
2.795000E-8	6.279666E-3
2.800000E-8	6.353322E-3
2.805000E-8	6.473228E-3
2.810000E-8	6.634244E-3
2.815000E-8	6.812390E-3
2.820000E-8	7.017944E-3
2.825000E-8	7.245766E-3
2.830000E-8	7.439329E-3
2.835000E-8	7.586642E-3
2.840000E-8	7.733956E-3
2.845000E-8	7.894973E-3
2.850000E-8	8.049139E-3
2.855000E-8	8.158768E-3
2.860000E-8	8.217008E-3
2.865000E-8	8.240990E-3
2.870000E-8	8.246130E-3
2.875000E-8	8.230713E-3
2.880000E-8	8.163909E-3
2.885000E-8	8.062845E-3
2.890000E-8	7.937800E-3
2.895000E-8	7.809329E-3
2.900000E-8	7.680858E-3
2.905000E-8	7.530119E-3
2.910000E-8	7.353685E-3
2.915000E-8	7.192667E-3
2.920000E-8	7.071048E-3
2.925000E-8	6.959706E-3
2.930000E-8	6.855215E-3
2.935000E-8	6.771280E-3
2.940000E-8	6.695910E-3
2.945000E-8	6.627392E-3
2.950000E-8	6.606836E-3
2.955000E-8	6.635956E-3
2.960000E-8	6.690770E-3
2.965000E-8	6.793547E-3
2.970000E-8	6.951139E-3
2.975000E-8	7.098453E-3
2.980000E-8	7.223499E-3
2.985000E-8	7.363961E-3
2.990000E-8	7.492433E-3
2.995000E-8	7.545535E-3
3.000000E-8	7.554100E-3
3.005000E-8	7.524980E-3
3.010000E-8	7.417065E-3
3.015000E-8	7.261187E-3
3.020000E-8	7.117299E-3
3.025000E-8	6.951143E-3
3.030000E-8	6.757580E-3
3.035000E-8	6.623970E-3
3.040000E-8	6.574294E-3
3.045000E-8	6.570867E-3
3.050000E-8	6.637672E-3
3.055000E-8	6.781559E-3
3.060000E-8	6.949427E-3
3.065000E-8	7.112156E-3
3.070000E-8	7.292015E-3
3.075000E-8	7.444467E-3
3.080000E-8	7.545531E-3
3.085000E-8	7.607197E-3
3.090000E-8	7.602058E-3
3.095000E-8	7.492429E-3
3.100000E-8	7.327987E-3
3.105000E-8	7.151553E-3
3.110000E-8	6.956278E-3
3.115000E-8	6.752438E-3
3.120000E-8	6.593134E-3
3.125000E-8	6.498923E-3
3.130000E-8	6.428692E-3
3.135000E-8	6.380730E-3
3.140000E-8	6.375592E-3
3.145000E-8	6.408138E-3
3.150000E-8	6.461240E-3
3.155000E-8	6.538322E-3
3.160000E-8	6.629109E-3
3.165000E-8	6.694201E-3
3.170000E-8	6.718182E-3
3.175000E-8	6.735311E-3
3.180000E-8	6.752440E-3
3.185000E-8	6.742162E-3
3.190000E-8	6.713041E-3
3.195000E-8	6.726744E-3
3.200000E-8	6.793549E-3
3.205000E-8	6.872344E-3
3.210000E-8	6.954565E-3
3.215000E-8	7.065907E-3
3.220000E-8	7.180674E-3
3.225000E-8	7.256044E-3
3.230000E-8	7.310858E-3
3.235000E-8	7.324562E-3
3.240000E-8	7.274887E-3
3.245000E-8	7.173823E-3
3.250000E-8	7.050491E-3
3.255000E-8	6.916881E-3
3.260000E-8	6.767855E-3
3.265000E-8	6.634246E-3
3.270000E-8	6.526330E-3
3.275000E-8	6.464665E-3
3.280000E-8	6.447535E-3
3.285000E-8	6.456100E-3
3.290000E-8	6.452675E-3
3.295000E-8	6.459526E-3
3.300000E-8	6.509202E-3
3.305000E-8	6.574294E-3
3.310000E-8	6.623969E-3
3.315000E-8	6.682209E-3
3.320000E-8	6.766143E-3
3.325000E-8	6.855215E-3
3.330000E-8	6.923733E-3
3.335000E-8	6.990537E-3
3.340000E-8	7.059055E-3
3.345000E-8	7.100165E-3
3.350000E-8	7.100165E-3
3.355000E-8	7.093313E-3
3.360000E-8	7.122433E-3
3.365000E-8	7.156692E-3
3.370000E-8	7.144701E-3
3.375000E-8	7.113868E-3
3.380000E-8	7.096739E-3
3.385000E-8	7.086462E-3
3.390000E-8	7.062481E-3
3.395000E-8	7.045352E-3
3.400000E-8	7.035075E-3
3.405000E-8	7.036788E-3
3.410000E-8	7.069334E-3
3.415000E-8	7.136140E-3
3.420000E-8	7.194380E-3
3.425000E-8	7.225214E-3
3.430000E-8	7.213223E-3
3.435000E-8	7.161835E-3
3.440000E-8	7.086465E-3
3.445000E-8	7.011095E-3
3.450000E-8	6.920308E-3
3.455000E-8	6.805540E-3
3.460000E-8	6.682208E-3
3.465000E-8	6.582856E-3
3.470000E-8	6.505773E-3
3.475000E-8	6.462948E-3
3.480000E-8	6.488642E-3
3.485000E-8	6.601696E-3
3.490000E-8	6.767852E-3
3.495000E-8	6.961415E-3
3.500000E-8	7.175533E-3
3.505000E-8	7.375948E-3
3.510000E-8	7.521549E-3
3.515000E-8	7.619188E-3
3.520000E-8	7.692845E-3
3.525000E-8	7.704837E-3
3.530000E-8	7.624329E-3
3.535000E-8	7.465026E-3
3.540000E-8	7.262899E-3
3.545000E-8	7.050494E-3
3.550000E-8	6.855218E-3
3.555000E-8	6.678785E-3
3.560000E-8	6.534897E-3
3.565000E-8	6.438972E-3
3.570000E-8	6.408139E-3
3.575000E-8	6.437259E-3
3.580000E-8	6.516054E-3
3.585000E-8	6.639385E-3
3.590000E-8	6.805540E-3
3.595000E-8	6.997390E-3
3.600000E-8	7.214934E-3
3.605000E-8	7.427339E-3
3.610000E-8	7.590068E-3
3.615000E-8	7.706548E-3
3.620000E-8	7.788770E-3
3.625000E-8	7.799048E-3
3.630000E-8	7.713400E-3
3.635000E-8	7.583217E-3
3.640000E-8	7.417061E-3
3.645000E-8	7.211508E-3
3.650000E-8	7.007667E-3
3.655000E-8	6.856929E-3
3.660000E-8	6.742162E-3
3.665000E-8	6.635959E-3
3.670000E-8	6.558877E-3
3.675000E-8	6.529757E-3
3.680000E-8	6.541748E-3
3.685000E-8	6.598275E-3
3.690000E-8	6.682210E-3
3.695000E-8	6.762718E-3
3.700000E-8	6.832949E-3
3.705000E-8	6.904892E-3
3.710000E-8	6.956281E-3
3.715000E-8	6.985400E-3
3.720000E-8	7.007668E-3
3.725000E-8	7.021372E-3
3.730000E-8	7.023084E-3
3.735000E-8	7.052204E-3
3.740000E-8	7.088175E-3
3.745000E-8	7.110443E-3
3.750000E-8	7.163544E-3
3.755000E-8	7.269747E-3
3.760000E-8	7.369098E-3
3.765000E-8	7.408496E-3
3.770000E-8	7.439329E-3
3.775000E-8	7.478727E-3
3.780000E-8	7.487292E-3
3.785000E-8	7.463311E-3
3.790000E-8	7.432478E-3
3.795000E-8	7.396507E-3
3.800000E-8	7.346832E-3
3.805000E-8	7.281740E-3
3.810000E-8	7.204658E-3
3.815000E-8	7.108733E-3
3.820000E-8	7.012808E-3
3.825000E-8	6.954568E-3
3.830000E-8	6.932299E-3
3.835000E-8	6.920308E-3
3.840000E-8	6.908318E-3
3.845000E-8	6.922021E-3
3.850000E-8	6.944289E-3
3.855000E-8	6.949427E-3
3.860000E-8	6.992250E-3
3.865000E-8	7.079610E-3
3.870000E-8	7.172109E-3
3.875000E-8	7.250904E-3
3.880000E-8	7.351968E-3
3.885000E-8	7.446180E-3
3.890000E-8	7.489003E-3
3.895000E-8	7.495855E-3
3.900000E-8	7.504420E-3
3.905000E-8	7.483865E-3
3.910000E-8	7.417060E-3
3.915000E-8	7.307433E-3
3.920000E-8	7.161833E-3
3.925000E-8	6.983687E-3
3.930000E-8	6.805541E-3
3.935000E-8	6.658228E-3
3.940000E-8	6.552026E-3
3.945000E-8	6.492073E-3
3.950000E-8	6.469805E-3
3.955000E-8	6.473231E-3
3.960000E-8	6.497212E-3
3.965000E-8	6.576008E-3
3.970000E-8	6.714756E-3
3.975000E-8	6.865495E-3
3.980000E-8	7.024799E-3
3.985000E-8	7.218361E-3
3.990000E-8	7.394794E-3
3.995000E-8	7.490719E-3
4.000000E-8	7.538681E-3
4.005000E-8	7.590069E-3
4.010000E-8	7.615763E-3
4.015000E-8	7.586642E-3
4.020000E-8	7.528402E-3
4.025000E-8	7.435903E-3
4.030000E-8	7.302293E-3
4.035000E-8	7.185812E-3
4.040000E-8	7.095026E-3
4.045000E-8	6.990536E-3
4.050000E-8	6.901463E-3
4.055000E-8	6.879195E-3
4.060000E-8	6.886047E-3
4.065000E-8	6.903177E-3
4.070000E-8	6.939149E-3
4.075000E-8	6.981974E-3
4.080000E-8	7.011094E-3
4.085000E-8	7.062483E-3
4.090000E-8	7.139566E-3
4.095000E-8	7.202945E-3
4.100000E-8	7.256047E-3
4.105000E-8	7.322852E-3
4.110000E-8	7.393083E-3
4.115000E-8	7.444471E-3
4.120000E-8	7.471878E-3
4.125000E-8	7.490720E-3
4.130000E-8	7.490719E-3
4.135000E-8	7.471876E-3
4.140000E-8	7.434191E-3
4.145000E-8	7.372525E-3
4.150000E-8	7.285164E-3
4.155000E-8	7.187526E-3
4.160000E-8	7.089888E-3
4.165000E-8	6.975120E-3
4.170000E-8	6.838084E-3
4.175000E-8	6.709613E-3
4.180000E-8	6.603411E-3
4.185000E-8	6.510912E-3
4.190000E-8	6.433830E-3
4.195000E-8	6.385868E-3
4.200000E-8	6.365313E-3
4.205000E-8	6.370452E-3
4.210000E-8	6.372165E-3
4.215000E-8	6.370452E-3
4.220000E-8	6.373878E-3
4.225000E-8	6.397859E-3
4.230000E-8	6.454387E-3
4.235000E-8	6.560589E-3
4.240000E-8	6.697625E-3
4.245000E-8	6.853503E-3
4.250000E-8	7.019659E-3
4.255000E-8	7.160121E-3
4.260000E-8	7.264610E-3
4.265000E-8	7.360535E-3
4.270000E-8	7.454747E-3
4.275000E-8	7.519839E-3
4.280000E-8	7.535255E-3
4.285000E-8	7.507848E-3
4.290000E-8	7.449607E-3
4.295000E-8	7.369099E-3
4.300000E-8	7.278312E-3
4.305000E-8	7.161832E-3
4.310000E-8	7.035074E-3
4.315000E-8	6.910029E-3
4.320000E-8	6.776419E-3
4.325000E-8	6.641097E-3
4.330000E-8	6.543459E-3
4.335000E-8	6.490358E-3
4.340000E-8	6.466377E-3
4.345000E-8	6.493785E-3
4.350000E-8	6.564016E-3
4.355000E-8	6.629108E-3
4.360000E-8	6.707903E-3
4.365000E-8	6.848365E-3
4.370000E-8	7.021372E-3
4.375000E-8	7.168685E-3
4.380000E-8	7.339979E-3
4.385000E-8	7.559236E-3
4.390000E-8	7.757938E-3
4.395000E-8	7.874418E-3
4.400000E-8	7.929232E-3
4.405000E-8	7.930944E-3
4.410000E-8	7.877843E-3
4.415000E-8	7.756223E-3
4.420000E-8	7.548957E-3
4.425000E-8	7.286876E-3
4.430000E-8	7.035073E-3
4.435000E-8	6.803826E-3
4.440000E-8	6.599985E-3
4.445000E-8	6.462950E-3
4.450000E-8	6.401284E-3
4.455000E-8	6.385868E-3
4.460000E-8	6.449247E-3
4.465000E-8	6.613691E-3
4.470000E-8	6.826096E-3
4.475000E-8	7.035076E-3
4.480000E-8	7.250907E-3
4.485000E-8	7.466739E-3
4.490000E-8	7.641459E-3
4.495000E-8	7.739097E-3
4.500000E-8	7.763078E-3
4.505000E-8	7.737384E-3
4.510000E-8	7.648310E-3
4.515000E-8	7.494144E-3
4.520000E-8	7.304007E-3
4.525000E-8	7.129286E-3
4.530000E-8	6.993963E-3
4.535000E-8	6.908315E-3
4.540000E-8	6.886047E-3
4.545000E-8	6.925444E-3
4.550000E-8	6.990536E-3
4.555000E-8	7.069332E-3
4.560000E-8	7.158405E-3
4.565000E-8	7.250904E-3
4.570000E-8	7.327987E-3
4.575000E-8	7.382802E-3
4.580000E-8	7.379376E-3
4.585000E-8	7.290303E-3
4.590000E-8	7.122435E-3
4.595000E-8	6.920307E-3
4.600000E-8	6.704476E-3
4.605000E-8	6.476654E-3
4.610000E-8	6.259110E-3
4.615000E-8	6.101519E-3
4.620000E-8	6.021011E-3
4.625000E-8	6.022723E-3
4.630000E-8	6.089528E-3
4.635000E-8	6.212860E-3
4.640000E-8	6.379016E-3
4.645000E-8	6.576005E-3
4.650000E-8	6.815817E-3
4.655000E-8	7.052203E-3
4.660000E-8	7.238914E-3
4.665000E-8	7.394792E-3
4.670000E-8	7.536967E-3
4.675000E-8	7.619188E-3
4.680000E-8	7.631178E-3
4.685000E-8	7.602058E-3
4.690000E-8	7.536966E-3
4.695000E-8	7.429051E-3
4.700000E-8	7.314283E-3
4.705000E-8	7.209794E-3
4.710000E-8	7.098453E-3
4.715000E-8	7.000815E-3
4.720000E-8	6.937437E-3
4.725000E-8	6.894613E-3
4.730000E-8	6.855216E-3
4.735000E-8	6.834661E-3
4.740000E-8	6.836374E-3
4.745000E-8	6.846652E-3
4.750000E-8	6.868920E-3
4.755000E-8	6.904892E-3
4.760000E-8	6.946002E-3
4.765000E-8	6.990539E-3
4.770000E-8	7.050492E-3
4.775000E-8	7.127574E-3
4.780000E-8	7.214934E-3
4.785000E-8	7.305720E-3
4.790000E-8	7.399932E-3
4.795000E-8	7.483866E-3
4.800000E-8	7.543819E-3
4.805000E-8	7.591782E-3
4.810000E-8	7.646596E-3
4.815000E-8	7.708262E-3
4.820000E-8	7.732243E-3
4.825000E-8	7.704836E-3
4.830000E-8	7.641457E-3
4.835000E-8	7.524977E-3
4.840000E-8	7.363960E-3
4.845000E-8	7.204656E-3
4.850000E-8	7.038501E-3
4.855000E-8	6.826095E-3
4.860000E-8	6.605125E-3
4.865000E-8	6.454386E-3
4.870000E-8	6.356748E-3
4.875000E-8	6.291656E-3
4.880000E-8	6.296795E-3
4.885000E-8	6.377304E-3
4.890000E-8	6.464664E-3
4.895000E-8	6.534894E-3
4.900000E-8	6.637671E-3
4.905000E-8	6.781559E-3
4.910000E-8	6.898039E-3
4.915000E-8	6.968270E-3
4.920000E-8	7.024797E-3
4.925000E-8	7.067621E-3
4.930000E-8	7.084750E-3
4.935000E-8	7.071047E-3
4.940000E-8	7.038501E-3
4.945000E-8	7.011093E-3
4.950000E-8	6.969982E-3
4.955000E-8	6.887761E-3
4.960000E-8	6.807252E-3
4.965000E-8	6.766141E-3
4.970000E-8	6.728456E-3
4.975000E-8	6.683920E-3
4.980000E-8	6.665077E-3
4.985000E-8	6.649661E-3
4.990000E-8	6.581144E-3
4.995000E-8	6.524617E-3
5.000000E-8	6.540034E-3
5.005000E-8	6.565728E-3
5.010000E-8	6.548599E-3
5.015000E-8	6.552025E-3
5.020000E-8	6.632534E-3
5.025000E-8	6.755866E-3
5.030000E-8	6.875772E-3
5.035000E-8	6.993965E-3
5.040000E-8	7.153269E-3
5.045000E-8	7.350258E-3
5.050000E-8	7.518126E-3
5.055000E-8	7.638032E-3
5.060000E-8	7.776781E-3
5.065000E-8	7.932659E-3
5.070000E-8	8.038861E-3
5.075000E-8	8.109092E-3
5.080000E-8	8.170758E-3
5.085000E-8	8.177610E-3
5.090000E-8	8.095388E-3
5.095000E-8	7.972056E-3
5.100000E-8	7.817891E-3
5.105000E-8	7.612337E-3
5.110000E-8	7.382802E-3
5.115000E-8	7.173823E-3
5.120000E-8	6.969982E-3
5.125000E-8	6.805539E-3
5.130000E-8	6.677069E-3
5.135000E-8	6.531468E-3
5.140000E-8	6.391007E-3
5.145000E-8	6.348183E-3
5.150000E-8	6.346470E-3
5.155000E-8	6.308785E-3
5.160000E-8	6.319063E-3
5.165000E-8	6.449247E-3
5.170000E-8	6.617116E-3
5.175000E-8	6.761003E-3
5.180000E-8	6.922020E-3
5.185000E-8	7.127573E-3
5.190000E-8	7.333127E-3
5.195000E-8	7.524977E-3
5.200000E-8	7.718540E-3
5.205000E-8	7.905251E-3
5.210000E-8	8.043999E-3
5.215000E-8	8.102240E-3
5.220000E-8	8.071407E-3
5.225000E-8	7.954926E-3
5.230000E-8	7.757937E-3
5.235000E-8	7.535254E-3
5.240000E-8	7.293729E-3
5.245000E-8	7.036787E-3
5.250000E-8	6.759289E-3
5.255000E-8	6.516051E-3
5.260000E-8	6.329340E-3
5.265000E-8	6.221425E-3
5.270000E-8	6.190592E-3
5.275000E-8	6.228277E-3
5.280000E-8	6.313924E-3
5.285000E-8	6.449247E-3
5.290000E-8	6.632533E-3
5.295000E-8	6.850077E-3
5.300000E-8	7.055631E-3
5.305000E-8	7.235490E-3
5.310000E-8	7.401646E-3
5.315000E-8	7.540394E-3
5.320000E-8	7.644884E-3
5.325000E-8	7.721966E-3
5.330000E-8	7.773355E-3
5.335000E-8	7.785345E-3
5.340000E-8	7.776780E-3
5.345000E-8	7.754512E-3
5.350000E-8	7.687707E-3
5.355000E-8	7.579791E-3
5.360000E-8	7.453033E-3
5.365000E-8	7.304006E-3
5.370000E-8	7.130998E-3
5.375000E-8	6.988824E-3
5.380000E-8	6.887760E-3
5.385000E-8	6.784983E-3
5.390000E-8	6.692484E-3
5.395000E-8	6.654800E-3
5.400000E-8	6.649661E-3
5.405000E-8	6.634245E-3
5.410000E-8	6.632532E-3
5.415000E-8	6.663365E-3
5.420000E-8	6.711328E-3
5.425000E-8	6.769568E-3
5.430000E-8	6.838086E-3
5.435000E-8	6.915169E-3
5.440000E-8	7.004242E-3
5.445000E-8	7.108732E-3
5.450000E-8	7.192666E-3
5.455000E-8	7.256045E-3
5.460000E-8	7.334841E-3
5.465000E-8	7.418775E-3
5.470000E-8	7.473589E-3
5.475000E-8	7.511274E-3
5.480000E-8	7.538681E-3
5.485000E-8	7.542107E-3
5.490000E-8	7.514699E-3
5.495000E-8	7.473588E-3
5.500000E-8	7.427339E-3
5.505000E-8	7.381089E-3
5.510000E-8	7.319423E-3
5.515000E-8	7.238915E-3
5.520000E-8	7.173823E-3
5.525000E-8	7.120721E-3
5.530000E-8	7.059055E-3
5.535000E-8	6.995676E-3
5.540000E-8	6.981973E-3
5.545000E-8	7.024797E-3
5.550000E-8	7.069334E-3
5.555000E-8	7.110445E-3
5.560000E-8	7.184102E-3
5.565000E-8	7.292018E-3
5.570000E-8	7.365674E-3
5.575000E-8	7.411924E-3
5.580000E-8	7.470164E-3
5.585000E-8	7.528404E-3
5.590000E-8	7.540394E-3
5.595000E-8	7.518125E-3
5.600000E-8	7.487292E-3
5.605000E-8	7.422200E-3
5.610000E-8	7.329700E-3
5.615000E-8	7.247478E-3
5.620000E-8	7.184099E-3
5.625000E-8	7.103591E-3
5.630000E-8	7.038499E-3
5.635000E-8	7.000814E-3
5.640000E-8	6.952852E-3
5.645000E-8	6.882622E-3
5.650000E-8	6.827808E-3
5.655000E-8	6.767855E-3
5.660000E-8	6.692486E-3
5.665000E-8	6.606838E-3
5.670000E-8	6.546885E-3
5.675000E-8	6.521191E-3
5.680000E-8	6.533182E-3
5.685000E-8	6.582857E-3
5.690000E-8	6.687347E-3
5.695000E-8	6.855216E-3
5.700000E-8	7.047065E-3
5.705000E-8	7.235490E-3
5.710000E-8	7.427340E-3
5.715000E-8	7.622615E-3
5.720000E-8	7.769929E-3
5.725000E-8	7.853863E-3
5.730000E-8	7.888122E-3
5.735000E-8	7.847011E-3
5.740000E-8	7.727105E-3
5.745000E-8	7.572940E-3
5.750000E-8	7.401645E-3
5.755000E-8	7.216647E-3
5.760000E-8	7.053916E-3
5.765000E-8	6.944288E-3
5.770000E-8	6.877483E-3
5.775000E-8	6.853501E-3
5.780000E-8	6.894612E-3
5.785000E-8	6.951139E-3
5.790000E-8	6.975121E-3
5.795000E-8	6.964843E-3
5.800000E-8	6.969982E-3
5.805000E-8	6.959705E-3
5.810000E-8	6.882623E-3
5.815000E-8	6.783272E-3
5.820000E-8	6.702764E-3
5.825000E-8	6.635959E-3
5.830000E-8	6.584571E-3
5.835000E-8	6.581145E-3
5.840000E-8	6.591422E-3
5.845000E-8	6.610265E-3
5.850000E-8	6.666792E-3
5.855000E-8	6.766142E-3
5.860000E-8	6.882622E-3
5.865000E-8	7.033362E-3
5.870000E-8	7.214934E-3
5.875000E-8	7.350256E-3
5.880000E-8	7.441042E-3
5.885000E-8	7.516412E-3
5.890000E-8	7.538680E-3
5.895000E-8	7.512986E-3
5.900000E-8	7.485579E-3
5.905000E-8	7.423913E-3
5.910000E-8	7.297155E-3
5.915000E-8	7.172110E-3
5.920000E-8	7.071047E-3
5.925000E-8	6.923734E-3
5.930000E-8	6.755865E-3
5.935000E-8	6.641098E-3
5.940000E-8	6.555451E-3
5.945000E-8	6.473229E-3
5.950000E-8	6.442396E-3
5.955000E-8	6.462952E-3
5.960000E-8	6.522905E-3
5.965000E-8	6.659941E-3
5.970000E-8	6.862068E-3
5.975000E-8	7.081325E-3
5.980000E-8	7.307434E-3
5.985000E-8	7.535255E-3
5.990000E-8	7.709976E-3
5.995000E-8	7.833308E-3
6.000000E-8	7.932658E-3
6.005000E-8	7.989186E-3
6.010000E-8	7.968630E-3
6.015000E-8	7.901825E-3
6.020000E-8	7.793910E-3
6.025000E-8	7.632893E-3
6.030000E-8	7.441043E-3
6.035000E-8	7.249193E-3
6.040000E-8	7.057343E-3
6.045000E-8	6.882623E-3
6.050000E-8	6.726745E-3
6.055000E-8	6.576005E-3
6.060000E-8	6.449247E-3
6.065000E-8	6.363600E-3
6.070000E-8	6.303647E-3
6.075000E-8	6.267675E-3
6.080000E-8	6.291656E-3
6.085000E-8	6.339619E-3
6.090000E-8	6.397859E-3
6.095000E-8	6.481794E-3
6.100000E-8	6.591422E-3
6.105000E-8	6.685634E-3
6.110000E-8	6.784985E-3
6.115000E-8	6.899753E-3
6.120000E-8	6.992251E-3
6.125000E-8	7.086463E-3
6.130000E-8	7.226925E-3
6.135000E-8	7.375951E-3
6.140000E-8	7.475301E-3
6.145000E-8	7.559236E-3
6.150000E-8	7.634605E-3
6.155000E-8	7.665438E-3
6.160000E-8	7.667151E-3
6.165000E-8	7.680855E-3
6.170000E-8	7.679142E-3
6.175000E-8	7.643171E-3
6.180000E-8	7.576366E-3
6.185000E-8	7.492432E-3
6.190000E-8	7.377664E-3
6.195000E-8	7.250906E-3
6.200000E-8	7.151555E-3
6.205000E-8	7.084750E-3
6.210000E-8	7.041927E-3
6.215000E-8	7.017945E-3
6.220000E-8	7.023084E-3
6.225000E-8	7.052204E-3
6.230000E-8	7.091602E-3
6.235000E-8	7.134425E-3
6.240000E-8	7.184101E-3
6.245000E-8	7.271461E-3
6.250000E-8	7.381090E-3
6.255000E-8	7.468450E-3
6.260000E-8	7.512987E-3
6.265000E-8	7.540394E-3
6.270000E-8	7.554098E-3
6.275000E-8	7.521551E-3
6.280000E-8	7.478728E-3
6.285000E-8	7.466737E-3
6.290000E-8	7.447894E-3
6.295000E-8	7.382802E-3
6.300000E-8	7.331414E-3
6.305000E-8	7.333127E-3
6.310000E-8	7.362247E-3
6.315000E-8	7.379377E-3
6.320000E-8	7.391367E-3
6.325000E-8	7.389655E-3
6.330000E-8	7.351970E-3
6.335000E-8	7.280026E-3
6.340000E-8	7.189240E-3
6.345000E-8	7.088177E-3
6.350000E-8	6.983687E-3
6.355000E-8	6.867206E-3
6.360000E-8	6.738735E-3
6.365000E-8	6.629106E-3
6.370000E-8	6.558876E-3
6.375000E-8	6.524616E-3
6.380000E-8	6.528042E-3
6.385000E-8	6.581144E-3
6.390000E-8	6.661652E-3
6.395000E-8	6.757577E-3
6.400000E-8	6.872345E-3
6.405000E-8	7.014519E-3
6.410000E-8	7.125861E-3
6.415000E-8	7.166972E-3
6.420000E-8	7.156694E-3
6.425000E-8	7.141277E-3
6.430000E-8	7.136139E-3
6.435000E-8	7.113870E-3
6.440000E-8	7.081325E-3
6.445000E-8	7.043640E-3
6.450000E-8	6.985400E-3
6.455000E-8	6.879197E-3
6.460000E-8	6.735310E-3
6.465000E-8	6.579432E-3
6.470000E-8	6.416702E-3
6.475000E-8	6.248833E-3
6.480000E-8	6.108372E-3
6.485000E-8	6.015872E-3
6.490000E-8	5.957632E-3
6.495000E-8	5.942216E-3
6.500000E-8	6.000456E-3
6.505000E-8	6.147769E-3
6.510000E-8	6.351609E-3
6.515000E-8	6.576005E-3
6.520000E-8	6.822669E-3
6.525000E-8	7.079611E-3
6.530000E-8	7.310859E-3
6.535000E-8	7.506135E-3
6.540000E-8	7.651735E-3
6.545000E-8	7.720253E-3
6.550000E-8	7.703123E-3
6.555000E-8	7.631179E-3
6.560000E-8	7.509560E-3
6.565000E-8	7.334839E-3
6.570000E-8	7.139564E-3
6.575000E-8	6.969982E-3
6.580000E-8	6.824382E-3
6.585000E-8	6.704476E-3
6.590000E-8	6.639384E-3
6.595000E-8	6.630820E-3
6.600000E-8	6.661653E-3
6.605000E-8	6.725032E-3
6.610000E-8	6.822670E-3
6.615000E-8	6.947716E-3
6.620000E-8	7.071048E-3
6.625000E-8	7.185816E-3
6.630000E-8	7.300583E-3
6.635000E-8	7.399934E-3
6.640000E-8	7.468452E-3
6.645000E-8	7.535257E-3
6.650000E-8	7.612339E-3
6.655000E-8	7.651737E-3
6.660000E-8	7.646598E-3
6.665000E-8	7.658588E-3
6.670000E-8	7.684282E-3
6.675000E-8	7.670579E-3
6.680000E-8	7.638032E-3
6.685000E-8	7.600348E-3
6.690000E-8	7.504422E-3
6.695000E-8	7.333128E-3
6.700000E-8	7.120722E-3
6.705000E-8	6.896326E-3
6.710000E-8	6.677069E-3
6.715000E-8	6.492071E-3
6.720000E-8	6.351609E-3
6.725000E-8	6.281378E-3
6.730000E-8	6.286517E-3
6.735000E-8	6.341332E-3
6.740000E-8	6.440683E-3
6.745000E-8	6.608552E-3
6.750000E-8	6.827809E-3
6.755000E-8	7.059057E-3
6.760000E-8	7.283453E-3
6.765000E-8	7.487294E-3
6.770000E-8	7.624330E-3
6.775000E-8	7.684283E-3
6.780000E-8	7.682570E-3
6.785000E-8	7.631181E-3
6.790000E-8	7.514700E-3
6.795000E-8	7.346832E-3
6.800000E-8	7.139565E-3
6.805000E-8	6.915169E-3
6.810000E-8	6.716467E-3
6.815000E-8	6.555450E-3
6.820000E-8	6.404710E-3
6.825000E-8	6.295082E-3
6.830000E-8	6.257397E-3
6.835000E-8	6.284804E-3
6.840000E-8	6.353322E-3
6.845000E-8	6.464663E-3
6.850000E-8	6.603412E-3
6.855000E-8	6.735309E-3
6.860000E-8	6.846651E-3
6.865000E-8	6.927159E-3
6.870000E-8	6.981973E-3
6.875000E-8	7.028223E-3
6.880000E-8	7.074473E-3
6.885000E-8	7.103593E-3
6.890000E-8	7.107019E-3
6.895000E-8	7.101880E-3
6.900000E-8	7.110445E-3
6.905000E-8	7.134426E-3
6.910000E-8	7.208083E-3
6.915000E-8	7.326276E-3
6.920000E-8	7.427340E-3
6.925000E-8	7.495858E-3
6.930000E-8	7.557524E-3
6.935000E-8	7.600347E-3
6.940000E-8	7.602060E-3
6.945000E-8	7.578079E-3
6.950000E-8	7.535255E-3
6.955000E-8	7.444469E-3
6.960000E-8	7.292017E-3
6.965000E-8	7.103593E-3
6.970000E-8	6.896326E-3
6.975000E-8	6.714754E-3
6.980000E-8	6.587996E-3
6.985000E-8	6.516052E-3
6.990000E-8	6.481794E-3
6.995000E-8	6.522905E-3
7.000000E-8	6.618830E-3
7.005000E-8	6.728459E-3
7.010000E-8	6.851791E-3
7.015000E-8	6.990540E-3
7.020000E-8	7.119011E-3
7.025000E-8	7.226926E-3
7.030000E-8	7.300583E-3
7.035000E-8	7.307435E-3
7.040000E-8	7.280028E-3
7.045000E-8	7.262898E-3
7.050000E-8	7.221787E-3
7.055000E-8	7.139566E-3
7.060000E-8	7.067622E-3
7.065000E-8	7.035076E-3
7.070000E-8	7.024798E-3
7.075000E-8	7.031650E-3
7.080000E-8	7.067621E-3
7.085000E-8	7.110445E-3
7.090000E-8	7.153269E-3
7.095000E-8	7.190954E-3
7.100000E-8	7.206370E-3
7.105000E-8	7.220074E-3
7.110000E-8	7.237203E-3
7.115000E-8	7.216648E-3
7.120000E-8	7.149843E-3
7.125000E-8	7.088177E-3
7.130000E-8	7.036789E-3
7.135000E-8	6.952854E-3
7.140000E-8	6.848364E-3
7.145000E-8	6.757578E-3
7.150000E-8	6.699337E-3
7.155000E-8	6.668504E-3
7.160000E-8	6.666791E-3
7.165000E-8	6.707902E-3
7.170000E-8	6.827808E-3
7.175000E-8	6.999102E-3
7.180000E-8	7.146416E-3
7.185000E-8	7.295442E-3
7.190000E-8	7.504422E-3
7.195000E-8	7.728818E-3
7.200000E-8	7.913816E-3
7.205000E-8	8.066269E-3
7.210000E-8	8.181036E-3
7.215000E-8	8.223860E-3
7.220000E-8	8.217009E-3
7.225000E-8	8.179324E-3
7.230000E-8	8.090251E-3
7.235000E-8	7.927521E-3
7.240000E-8	7.742523E-3
7.245000E-8	7.554099E-3
7.250000E-8	7.338268E-3
7.255000E-8	7.113872E-3
7.260000E-8	6.932299E-3
7.265000E-8	6.795263E-3
7.270000E-8	6.661653E-3
7.275000E-8	6.543460E-3
7.280000E-8	6.481793E-3
7.285000E-8	6.462951E-3
7.290000E-8	6.442395E-3
7.295000E-8	6.409849E-3
7.300000E-8	6.397858E-3
7.305000E-8	6.418414E-3
7.310000E-8	6.423553E-3
7.315000E-8	6.397859E-3
7.320000E-8	6.396146E-3
7.325000E-8	6.430405E-3
7.330000E-8	6.466377E-3
7.335000E-8	6.517765E-3
7.340000E-8	6.620542E-3
7.345000E-8	6.738735E-3
7.350000E-8	6.827809E-3
7.355000E-8	6.923734E-3
7.360000E-8	7.043640E-3
7.365000E-8	7.142991E-3
7.370000E-8	7.187528E-3
7.375000E-8	7.163547E-3
7.380000E-8	7.079612E-3
7.385000E-8	6.957993E-3
7.390000E-8	6.796976E-3
7.395000E-8	6.582858E-3
7.400000E-8	6.355036E-3
7.405000E-8	6.166611E-3
7.410000E-8	6.014159E-3
7.415000E-8	5.890827E-3
7.420000E-8	5.841151E-3
7.425000E-8	5.890827E-3
7.430000E-8	5.991890E-3
7.435000E-8	6.137491E-3
7.440000E-8	6.337906E-3
7.445000E-8	6.565728E-3
7.450000E-8	6.790124E-3
7.455000E-8	6.973410E-3
7.460000E-8	7.100168E-3
7.465000E-8	7.192667E-3
7.470000E-8	7.256046E-3
7.475000E-8	7.254333E-3
7.480000E-8	7.168686E-3
7.485000E-8	7.023085E-3
7.490000E-8	6.846651E-3
7.495000E-8	6.665078E-3
7.500000E-8	6.522903E-3
7.505000E-8	6.449247E-3
7.510000E-8	6.437256E-3
7.515000E-8	6.485219E-3
7.520000E-8	6.572579E-3
7.525000E-8	6.659939E-3
7.530000E-8	6.743874E-3
7.535000E-8	6.843225E-3
7.540000E-8	6.944289E-3
7.545000E-8	7.005955E-3
7.550000E-8	7.050492E-3
7.555000E-8	7.105307E-3
7.560000E-8	7.149843E-3
7.565000E-8	7.151556E-3
7.570000E-8	7.132714E-3
7.575000E-8	7.151556E-3
7.580000E-8	7.228639E-3
7.585000E-8	7.334841E-3
7.590000E-8	7.411924E-3
7.595000E-8	7.471877E-3
7.600000E-8	7.567802E-3
7.605000E-8	7.701412E-3
7.610000E-8	7.809328E-3
7.615000E-8	7.881272E-3
7.620000E-8	7.918957E-3
7.625000E-8	7.882985E-3
7.630000E-8	7.764791E-3
7.635000E-8	7.620904E-3
7.640000E-8	7.463312E-3
7.645000E-8	7.283453E-3
7.650000E-8	7.088177E-3
7.655000E-8	6.911743E-3
7.660000E-8	6.733597E-3
7.665000E-8	6.550311E-3
7.670000E-8	6.406424E-3
7.675000E-8	6.322489E-3
7.680000E-8	6.295082E-3
7.685000E-8	6.319063E-3
7.690000E-8	6.384155E-3
7.695000E-8	6.461238E-3
7.700000E-8	6.541747E-3
7.705000E-8	6.627394E-3
7.710000E-8	6.713041E-3
7.715000E-8	6.798688E-3
7.720000E-8	6.898039E-3
7.725000E-8	7.007668E-3
7.730000E-8	7.096741E-3
7.735000E-8	7.168685E-3
7.740000E-8	7.262897E-3
7.745000E-8	7.360535E-3
7.750000E-8	7.423914E-3
7.755000E-8	7.458173E-3
7.760000E-8	7.487293E-3
7.765000E-8	7.490719E-3
7.770000E-8	7.441043E-3
7.775000E-8	7.348544E-3
7.780000E-8	7.245767E-3
7.785000E-8	7.148129E-3
7.790000E-8	7.043639E-3
7.795000E-8	6.925446E-3
7.800000E-8	6.839798E-3
7.805000E-8	6.800401E-3
7.810000E-8	6.781558E-3
7.815000E-8	6.798688E-3
7.820000E-8	6.862068E-3
7.825000E-8	6.957993E-3
7.830000E-8	7.050492E-3
7.835000E-8	7.132714E-3
7.840000E-8	7.184102E-3
7.845000E-8	7.178963E-3
7.850000E-8	7.125862E-3
7.855000E-8	7.048779E-3
7.860000E-8	6.956280E-3
7.865000E-8	6.841512E-3
7.870000E-8	6.716467E-3
7.875000E-8	6.596561E-3
7.880000E-8	6.495497E-3
7.885000E-8	6.402998E-3
7.890000E-8	6.308785E-3
7.895000E-8	6.245406E-3
7.900000E-8	6.235129E-3
7.905000E-8	6.277953E-3
7.910000E-8	6.339619E-3
7.915000E-8	6.401285E-3
7.920000E-8	6.464664E-3
7.925000E-8	6.531469E-3
7.930000E-8	6.610265E-3
7.935000E-8	6.709616E-3
7.940000E-8	6.810680E-3
7.945000E-8	6.872346E-3
7.950000E-8	6.915169E-3
7.955000E-8	6.973410E-3
7.960000E-8	7.060770E-3
7.965000E-8	7.134426E-3
7.970000E-8	7.184101E-3
7.975000E-8	7.221786E-3
7.980000E-8	7.249193E-3
7.985000E-8	7.256045E-3
7.990000E-8	7.237202E-3
7.995000E-8	7.185814E-3
8.000000E-8	7.098453E-3
8.005000E-8	6.995677E-3
8.010000E-8	6.899752E-3
8.015000E-8	6.827808E-3
8.020000E-8	6.784984E-3
8.025000E-8	6.762716E-3
8.030000E-8	6.755865E-3
8.035000E-8	6.805540E-3
8.040000E-8	6.904891E-3
8.045000E-8	7.005955E-3
8.050000E-8	7.127574E-3
8.055000E-8	7.304008E-3
8.060000E-8	7.497571E-3
8.065000E-8	7.644884E-3
8.070000E-8	7.747661E-3
8.075000E-8	7.811041E-3
8.080000E-8	7.792198E-3
8.085000E-8	7.699699E-3
8.090000E-8	7.591784E-3
8.095000E-8	7.475303E-3
8.100000E-8	7.326277E-3
8.105000E-8	7.144705E-3
8.110000E-8	6.954568E-3
8.115000E-8	6.790125E-3
8.120000E-8	6.675357E-3
8.125000E-8	6.611978E-3
8.130000E-8	6.596561E-3
8.135000E-8	6.654801E-3
8.140000E-8	6.783272E-3
8.145000E-8	6.928872E-3
8.150000E-8	7.095028E-3
8.155000E-8	7.271461E-3
8.160000E-8	7.432479E-3
8.165000E-8	7.521552E-3
8.170000E-8	7.538682E-3
8.175000E-8	7.502710E-3
8.180000E-8	7.422202E-3
8.185000E-8	7.298870E-3
8.190000E-8	7.151556E-3
8.195000E-8	6.999104E-3
8.200000E-8	6.865494E-3
8.205000E-8	6.776421E-3
8.210000E-8	6.743874E-3
8.215000E-8	6.750726E-3
8.220000E-8	6.803827E-3
8.225000E-8	6.894613E-3
8.230000E-8	7.000816E-3
8.235000E-8	7.089889E-3
8.240000E-8	7.154981E-3
8.245000E-8	7.197805E-3
8.250000E-8	7.208083E-3
8.255000E-8	7.190954E-3
8.260000E-8	7.165260E-3
8.265000E-8	7.122436E-3
8.270000E-8	7.047066E-3
8.275000E-8	6.951141E-3
8.280000E-8	6.874058E-3
8.285000E-8	6.836373E-3
8.290000E-8	6.817531E-3
8.295000E-8	6.771281E-3
8.300000E-8	6.699337E-3
8.305000E-8	6.608551E-3
8.310000E-8	6.502348E-3
8.315000E-8	6.372164E-3
8.320000E-8	6.243693E-3
8.325000E-8	6.161472E-3
8.330000E-8	6.123788E-3
8.335000E-8	6.099807E-3
8.340000E-8	6.092955E-3
8.345000E-8	6.152908E-3
8.350000E-8	6.271102E-3
8.355000E-8	6.406424E-3
8.360000E-8	6.572580E-3
8.365000E-8	6.766143E-3
8.370000E-8	6.927160E-3
8.375000E-8	7.047066E-3
8.380000E-8	7.170398E-3
8.385000E-8	7.268036E-3
8.390000E-8	7.273174E-3
8.395000E-8	7.206369E-3
8.400000E-8	7.141277E-3
8.405000E-8	7.076185E-3
8.410000E-8	6.999103E-3
8.415000E-8	6.920308E-3
8.420000E-8	6.868919E-3
8.425000E-8	6.853503E-3
8.430000E-8	6.858642E-3
8.435000E-8	6.872346E-3
8.440000E-8	6.918596E-3
8.445000E-8	6.992253E-3
8.450000E-8	7.052206E-3
8.455000E-8	7.089891E-3
8.460000E-8	7.131001E-3
8.465000E-8	7.184103E-3
8.470000E-8	7.201232E-3
8.475000E-8	7.149844E-3
8.480000E-8	7.047067E-3
8.485000E-8	6.915170E-3
8.490000E-8	6.755865E-3
8.495000E-8	6.562302E-3
8.500000E-8	6.380730E-3
8.505000E-8	6.259111E-3
8.510000E-8	6.188880E-3
8.515000E-8	6.135779E-3
8.520000E-8	6.111797E-3
8.525000E-8	6.154621E-3
8.530000E-8	6.238555E-3
8.535000E-8	6.341332E-3
8.540000E-8	6.461238E-3
8.545000E-8	6.617116E-3
8.550000E-8	6.783272E-3
8.555000E-8	6.932298E-3
8.560000E-8	7.060769E-3
8.565000E-8	7.187527E-3
8.570000E-8	7.280026E-3
8.575000E-8	7.317711E-3
8.580000E-8	7.317710E-3
8.585000E-8	7.305720E-3
8.590000E-8	7.268035E-3
8.595000E-8	7.213221E-3
8.600000E-8	7.170397E-3
8.605000E-8	7.139565E-3
8.610000E-8	7.110445E-3
8.615000E-8	7.065909E-3
8.620000E-8	7.009381E-3
8.625000E-8	6.949428E-3
8.630000E-8	6.898040E-3
8.635000E-8	6.848365E-3
8.640000E-8	6.791837E-3
8.645000E-8	6.761004E-3
8.650000E-8	6.759291E-3
8.655000E-8	6.742161E-3
8.660000E-8	6.706189E-3
8.665000E-8	6.685633E-3
8.670000E-8	6.680494E-3
8.675000E-8	6.668504E-3
8.680000E-8	6.675356E-3
8.685000E-8	6.718179E-3
8.690000E-8	6.769568E-3
8.695000E-8	6.826095E-3
8.700000E-8	6.922020E-3
8.705000E-8	7.050491E-3
8.710000E-8	7.180675E-3
8.715000E-8	7.300581E-3
8.720000E-8	7.425627E-3
8.725000E-8	7.518126E-3
8.730000E-8	7.542107E-3
8.735000E-8	7.536968E-3
8.740000E-8	7.521551E-3
8.745000E-8	7.447895E-3
8.750000E-8	7.302294E-3
8.755000E-8	7.144703E-3
8.760000E-8	7.024797E-3
8.765000E-8	6.923734E-3
8.770000E-8	6.838087E-3
8.775000E-8	6.802115E-3
8.780000E-8	6.790124E-3
8.785000E-8	6.779847E-3
8.790000E-8	6.791837E-3
8.795000E-8	6.827809E-3
8.800000E-8	6.875771E-3
8.805000E-8	6.925447E-3
8.810000E-8	6.966557E-3
8.815000E-8	6.966557E-3
8.820000E-8	6.949427E-3
8.825000E-8	6.957992E-3
8.830000E-8	6.981973E-3
8.835000E-8	6.983686E-3
8.840000E-8	6.990538E-3
8.845000E-8	7.014520E-3
8.850000E-8	7.031649E-3
8.855000E-8	7.019659E-3
8.860000E-8	7.000817E-3
8.865000E-8	6.985400E-3
8.870000E-8	6.968271E-3
8.875000E-8	6.939151E-3
8.880000E-8	6.898040E-3
8.885000E-8	6.867207E-3
8.890000E-8	6.860355E-3
8.895000E-8	6.872345E-3
8.900000E-8	6.889475E-3
8.905000E-8	6.922020E-3
8.910000E-8	7.017945E-3
8.915000E-8	7.154981E-3
8.920000E-8	7.283452E-3
8.925000E-8	7.399932E-3
8.930000E-8	7.514700E-3
8.935000E-8	7.612338E-3
8.940000E-8	7.667152E-3
8.945000E-8	7.701411E-3
8.950000E-8	7.689421E-3
8.955000E-8	7.595209E-3
8.960000E-8	7.439331E-3
8.965000E-8	7.281740E-3
8.970000E-8	7.125862E-3
8.975000E-8	6.957993E-3
8.980000E-8	6.829522E-3
8.985000E-8	6.762717E-3
8.990000E-8	6.718181E-3
8.995000E-8	6.702764E-3
9.000000E-8	6.762717E-3
9.005000E-8	6.860355E-3
9.010000E-8	6.952855E-3
9.015000E-8	7.057344E-3
9.020000E-8	7.216649E-3
9.025000E-8	7.387943E-3
9.030000E-8	7.524979E-3
9.035000E-8	7.632895E-3
9.040000E-8	7.706551E-3
9.045000E-8	7.737384E-3
9.050000E-8	7.744236E-3
9.055000E-8	7.721967E-3
9.060000E-8	7.646598E-3
9.065000E-8	7.540395E-3
9.070000E-8	7.447896E-3
9.075000E-8	7.365674E-3
9.080000E-8	7.292017E-3
9.085000E-8	7.238916E-3
9.090000E-8	7.196092E-3
9.095000E-8	7.163546E-3
9.100000E-8	7.170398E-3
9.105000E-8	7.187528E-3
9.110000E-8	7.197805E-3
9.115000E-8	7.216648E-3
9.120000E-8	7.247481E-3
9.125000E-8	7.262897E-3
9.130000E-8	7.274888E-3
9.135000E-8	7.274888E-3
9.140000E-8	7.225212E-3
9.145000E-8	7.153269E-3
9.150000E-8	7.103593E-3
9.155000E-8	7.040214E-3
9.160000E-8	6.973409E-3
9.165000E-8	6.959706E-3
9.170000E-8	6.980261E-3
9.175000E-8	6.997391E-3
9.180000E-8	7.060770E-3
9.185000E-8	7.170398E-3
9.190000E-8	7.261185E-3
9.195000E-8	7.329702E-3
9.200000E-8	7.418776E-3
9.205000E-8	7.485581E-3
9.210000E-8	7.494145E-3
9.215000E-8	7.483868E-3
9.220000E-8	7.441044E-3
9.225000E-8	7.346832E-3
9.230000E-8	7.223500E-3
9.235000E-8	7.096741E-3
9.240000E-8	6.949428E-3
9.245000E-8	6.791837E-3
9.250000E-8	6.653088E-3
9.255000E-8	6.531469E-3
9.260000E-8	6.444109E-3
9.265000E-8	6.394433E-3
9.270000E-8	6.379017E-3
9.275000E-8	6.402998E-3
9.280000E-8	6.490358E-3
9.285000E-8	6.605126E-3
9.290000E-8	6.704477E-3
9.295000E-8	6.819244E-3
9.300000E-8	6.946002E-3
9.305000E-8	7.033362E-3
9.310000E-8	7.089890E-3
9.315000E-8	7.166972E-3
9.320000E-8	7.257758E-3
9.325000E-8	7.331415E-3
9.330000E-8	7.411924E-3
9.335000E-8	7.477016E-3
9.340000E-8	7.494145E-3
9.345000E-8	7.506136E-3
9.350000E-8	7.531830E-3
9.355000E-8	7.516414E-3
9.360000E-8	7.466738E-3
9.365000E-8	7.439331E-3
9.370000E-8	7.403359E-3
9.375000E-8	7.293730E-3
9.380000E-8	7.148130E-3
9.385000E-8	7.005955E-3
9.390000E-8	6.855216E-3
9.395000E-8	6.713041E-3
9.400000E-8	6.598273E-3
9.405000E-8	6.533181E-3
9.410000E-8	6.524617E-3
9.415000E-8	6.562302E-3
9.420000E-8	6.632533E-3
9.425000E-8	6.761004E-3
9.430000E-8	6.937438E-3
9.435000E-8	7.079612E-3
9.440000E-8	7.184102E-3
9.445000E-8	7.305721E-3
9.450000E-8	7.393082E-3
9.455000E-8	7.387943E-3
9.460000E-8	7.343406E-3
9.465000E-8	7.302295E-3
9.470000E-8	7.223500E-3
9.475000E-8	7.115584E-3
9.480000E-8	7.021372E-3
9.485000E-8	6.916882E-3
9.490000E-8	6.796976E-3
9.495000E-8	6.713042E-3
9.500000E-8	6.694199E-3
9.505000E-8	6.704477E-3
9.510000E-8	6.759291E-3
9.515000E-8	6.875772E-3
9.520000E-8	7.029937E-3
9.525000E-8	7.182390E-3
9.530000E-8	7.319425E-3
9.535000E-8	7.435906E-3
9.540000E-8	7.521553E-3
9.545000E-8	7.557525E-3
9.550000E-8	7.552386E-3
9.555000E-8	7.543821E-3
9.560000E-8	7.516414E-3
9.565000E-8	7.453035E-3
9.570000E-8	7.355397E-3
9.575000E-8	7.261185E-3
9.580000E-8	7.182389E-3
9.585000E-8	7.122436E-3
9.590000E-8	7.098455E-3
9.595000E-8	7.103594E-3
9.600000E-8	7.103593E-3
9.605000E-8	7.110445E-3
9.610000E-8	7.141278E-3
9.615000E-8	7.192666E-3
9.620000E-8	7.228638E-3
9.625000E-8	7.252619E-3
9.630000E-8	7.261184E-3
9.635000E-8	7.245768E-3
9.640000E-8	7.201231E-3
9.645000E-8	7.149843E-3
9.650000E-8	7.108732E-3
9.655000E-8	7.064196E-3
9.660000E-8	7.040215E-3
9.665000E-8	7.060770E-3
9.670000E-8	7.119011E-3
9.675000E-8	7.175538E-3
9.680000E-8	7.232065E-3
9.685000E-8	7.293731E-3
9.690000E-8	7.334842E-3
9.695000E-8	7.346832E-3
9.700000E-8	7.351971E-3
9.705000E-8	7.343406E-3
9.710000E-8	7.288592E-3
9.715000E-8	7.194380E-3
9.720000E-8	7.098455E-3
9.725000E-8	6.992252E-3
9.730000E-8	6.863781E-3
9.735000E-8	6.735310E-3
9.740000E-8	6.622256E-3
9.745000E-8	6.555451E-3
9.750000E-8	6.534896E-3
9.755000E-8	6.546886E-3
9.760000E-8	6.587997E-3
9.765000E-8	6.659941E-3
9.770000E-8	6.738736E-3
9.775000E-8	6.793550E-3
9.780000E-8	6.839800E-3
9.785000E-8	6.892901E-3
9.790000E-8	6.918595E-3
9.795000E-8	6.915169E-3
9.800000E-8	6.908317E-3
9.805000E-8	6.889474E-3
9.810000E-8	6.832947E-3
9.815000E-8	6.761004E-3
9.820000E-8	6.706189E-3
9.825000E-8	6.649662E-3
9.830000E-8	6.603413E-3
9.835000E-8	6.584571E-3
9.840000E-8	6.565729E-3
9.845000E-8	6.545173E-3
9.850000E-8	6.546886E-3
9.855000E-8	6.587997E-3
9.860000E-8	6.647950E-3
9.865000E-8	6.749013E-3
9.870000E-8	6.899753E-3
9.875000E-8	7.045353E-3
9.880000E-8	7.153268E-3
9.885000E-8	7.247480E-3
9.890000E-8	7.329702E-3
9.895000E-8	7.367387E-3
9.900000E-8	7.369100E-3
9.905000E-8	7.341693E-3
9.910000E-8	7.288591E-3
9.915000E-8	7.223500E-3
9.920000E-8	7.170399E-3
9.925000E-8	7.091603E-3
9.930000E-8	6.987114E-3
9.935000E-8	6.925448E-3
9.940000E-8	6.922022E-3
9.945000E-8	6.940864E-3
9.950000E-8	6.980262E-3
9.955000E-8	7.055631E-3
9.960000E-8	7.154982E-3
9.965000E-8	7.262897E-3
9.970000E-8	7.334841E-3
9.975000E-8	7.360535E-3
9.980000E-8	7.384515E-3
9.985000E-8	7.435904E-3
9.990000E-8	7.442755E-3
9.995000E-8	7.382802E-3
1.000000E-7	7.312571E-3
1.000500E-7	7.250905E-3
1.001000E-7	7.177249E-3
1.001500E-7	7.084750E-3
1.002000E-7	6.997390E-3
1.002500E-7	6.916882E-3
1.003000E-7	6.863781E-3
1.003500E-7	6.829522E-3
1.004000E-7	6.796976E-3
1.004500E-7	6.771282E-3
1.005000E-7	6.738736E-3
1.005500E-7	6.701051E-3
1.006000E-7	6.690773E-3
1.006500E-7	6.730171E-3
1.007000E-7	6.776420E-3
1.007500E-7	6.793550E-3
1.008000E-7	6.812392E-3
1.008500E-7	6.858642E-3
1.009000E-7	6.906605E-3
1.009500E-7	6.956280E-3
1.010000E-7	7.005956E-3
1.010500E-7	7.052206E-3
1.011000E-7	7.079613E-3
1.011500E-7	7.083039E-3
1.012000E-7	7.064197E-3
1.012500E-7	7.012808E-3
1.013000E-7	6.935726E-3
1.013500E-7	6.850078E-3
1.014000E-7	6.776421E-3
1.014500E-7	6.726746E-3
1.015000E-7	6.713042E-3
1.015500E-7	6.740449E-3
1.016000E-7	6.805541E-3
1.016500E-7	6.894614E-3
1.017000E-7	6.992252E-3
1.017500E-7	7.096742E-3
1.018000E-7	7.194380E-3
1.018500E-7	7.273176E-3
1.019000E-7	7.317712E-3
1.019500E-7	7.327990E-3
1.020000E-7	7.312573E-3
1.020500E-7	7.292018E-3
1.021000E-7	7.285166E-3
1.021500E-7	7.292018E-3
1.022000E-7	7.274888E-3
1.022500E-7	7.261185E-3
1.023000E-7	7.310860E-3
1.023500E-7	7.394795E-3
1.024000E-7	7.473590E-3
1.024500E-7	7.552386E-3
1.025000E-7	7.643172E-3
1.025500E-7	7.701412E-3
1.026000E-7	7.694560E-3
1.026500E-7	7.650024E-3
1.027000E-7	7.581506E-3
1.027500E-7	7.451322E-3
1.028000E-7	7.261185E-3
1.028500E-7	7.041928E-3
1.029000E-7	6.846652E-3
1.029500E-7	6.682209E-3
1.030000E-7	6.558877E-3
1.030500E-7	6.466378E-3
1.031000E-7	6.435545E-3
1.031500E-7	6.449248E-3
1.032000E-7	6.476655E-3
1.032500E-7	6.519479E-3
1.033000E-7	6.599988E-3
1.033500E-7	6.702764E-3
1.034000E-7	6.814106E-3
1.034500E-7	6.901466E-3
1.035000E-7	6.937438E-3
1.035500E-7	6.942577E-3
1.036000E-7	6.973410E-3
1.036500E-7	6.999105E-3
1.037000E-7	6.988827E-3
1.037500E-7	6.985401E-3
1.038000E-7	7.026512E-3
1.038500E-7	7.072761E-3
1.039000E-7	7.089890E-3
1.039500E-7	7.105307E-3
1.040000E-7	7.122436E-3
1.040500E-7	7.108732E-3
1.041000E-7	7.065908E-3
1.041500E-7	7.012807E-3
1.042000E-7	6.963132E-3
1.042500E-7	6.942576E-3
1.043000E-7	6.935725E-3
1.043500E-7	6.935725E-3
1.044000E-7	6.946003E-3
1.044500E-7	6.980262E-3
1.045000E-7	7.031651E-3
1.045500E-7	7.088178E-3
1.046000E-7	7.163548E-3
1.046500E-7	7.235491E-3
1.047000E-7	7.280028E-3
1.047500E-7	7.307435E-3
1.048000E-7	7.322851E-3
1.048500E-7	7.300583E-3
1.049000E-7	7.252620E-3
1.049500E-7	7.184102E-3
1.050000E-7	7.095029E-3
1.050500E-7	7.002530E-3
1.051000E-7	6.934013E-3
1.051500E-7	6.880911E-3
1.052000E-7	6.880911E-3
1.052500E-7	6.952855E-3
1.053000E-7	7.055632E-3
1.053500E-7	7.156696E-3
1.054000E-7	7.290305E-3
1.054500E-7	7.459887E-3
1.055000E-7	7.603774E-3
1.055500E-7	7.697986E-3
1.056000E-7	7.764790E-3
1.056500E-7	7.800762E-3
1.057000E-7	7.783632E-3
1.057500E-7	7.718540E-3
1.058000E-7	7.627754E-3
1.058500E-7	7.523265E-3
1.059000E-7	7.432479E-3
1.059500E-7	7.351970E-3
1.060000E-7	7.271462E-3
1.060500E-7	7.228638E-3
1.061000E-7	7.238916E-3
1.061500E-7	7.262898E-3
1.062000E-7	7.295444E-3
1.062500E-7	7.374239E-3
1.063000E-7	7.454748E-3
1.063500E-7	7.442757E-3
1.064000E-7	7.362248E-3
1.064500E-7	7.266323E-3
1.065000E-7	7.124148E-3
1.065500E-7	6.946002E-3
1.066000E-7	6.781559E-3
1.066500E-7	6.625680E-3
1.067000E-7	6.464664E-3
1.067500E-7	6.346470E-3
1.068000E-7	6.283091E-3
1.068500E-7	6.262536E-3
1.069000E-7	6.298508E-3
1.069500E-7	6.414988E-3
1.070000E-7	6.569154E-3
1.070500E-7	6.742161E-3
1.071000E-7	6.947715E-3
1.071500E-7	7.120723E-3
1.072000E-7	7.226925E-3
1.072500E-7	7.305721E-3
1.073000E-7	7.346832E-3
1.073500E-7	7.298869E-3
1.074000E-7	7.190954E-3
1.074500E-7	7.079612E-3
1.075000E-7	6.954567E-3
1.075500E-7	6.807254E-3
1.076000E-7	6.716468E-3
1.076500E-7	6.683922E-3
1.077000E-7	6.659940E-3
1.077500E-7	6.670218E-3
1.078000E-7	6.752440E-3
1.078500E-7	6.867207E-3
1.079000E-7	6.983687E-3
1.079500E-7	7.110445E-3
1.080000E-7	7.211509E-3
1.080500E-7	7.247481E-3
1.081000E-7	7.235490E-3
1.081500E-7	7.184102E-3
1.082000E-7	7.069335E-3
1.082500E-7	6.906605E-3
1.083000E-7	6.759291E-3
1.083500E-7	6.635959E-3
1.084000E-7	6.490358E-3
1.084500E-7	6.337906E-3
1.085000E-7	6.243694E-3
1.085500E-7	6.204296E-3
1.086000E-7	6.207722E-3
1.086500E-7	6.269388E-3
1.087000E-7	6.387581E-3
1.087500E-7	6.500636E-3
1.088000E-7	6.594848E-3
1.088500E-7	6.718180E-3
1.089000E-7	6.850077E-3
1.089500E-7	6.920308E-3
1.090000E-7	6.940864E-3
1.090500E-7	6.956280E-3
1.091000E-7	6.947716E-3
1.091500E-7	6.922022E-3
1.092000E-7	6.913458E-3
1.092500E-7	6.915171E-3
1.093000E-7	6.877486E-3
1.093500E-7	6.832950E-3
1.094000E-7	6.836375E-3
1.094500E-7	6.826098E-3
1.095000E-7	6.778135E-3
1.095500E-7	6.738737E-3
1.096000E-7	6.730172E-3
1.096500E-7	6.709616E-3
1.097000E-7	6.680495E-3
1.097500E-7	6.641097E-3
1.098000E-7	6.589709E-3
1.098500E-7	6.538320E-3
1.099000E-7	6.504061E-3
1.099500E-7	6.476654E-3
1.100000E-7	6.450960E-3
1.100500E-7	6.468089E-3
1.101000E-7	6.529756E-3
1.101500E-7	6.623968E-3
1.102000E-7	6.754152E-3
1.102500E-7	6.910031E-3
1.103000E-7	7.065909E-3
1.103500E-7	7.214935E-3
1.104000E-7	7.389656E-3
1.104500E-7	7.559238E-3
1.105000E-7	7.689421E-3
1.105500E-7	7.788772E-3
1.106000E-7	7.859003E-3
1.106500E-7	7.898400E-3
1.107000E-7	7.922381E-3
1.107500E-7	7.944650E-3
1.108000E-7	7.954928E-3
1.108500E-7	7.960067E-3
1.109000E-7	7.954928E-3
1.109500E-7	7.920669E-3
1.110000E-7	7.876133E-3
1.110500E-7	7.852151E-3
1.111000E-7	7.823031E-3
1.111500E-7	7.754514E-3
1.112000E-7	7.648311E-3
1.112500E-7	7.521553E-3
1.113000E-7	7.381091E-3
1.113500E-7	7.240629E-3
1.114000E-7	7.112158E-3
1.114500E-7	7.004243E-3
1.115000E-7	6.901466E-3
1.115500E-7	6.764430E-3
1.116000E-7	6.608552E-3
1.116500E-7	6.505775E-3
1.117000E-7	6.480081E-3
1.117500E-7	6.485220E-3
1.118000E-7	6.517766E-3
1.118500E-7	6.596562E-3
1.119000E-7	6.702764E-3
1.119500E-7	6.814106E-3
1.120000E-7	6.939151E-3
1.120500E-7	7.064196E-3
1.121000E-7	7.161834E-3
1.121500E-7	7.254333E-3
1.122000E-7	7.358823E-3
1.122500E-7	7.456461E-3
1.123000E-7	7.504423E-3
1.123500E-7	7.499284E-3
1.124000E-7	7.461599E-3
1.124500E-7	7.394795E-3
1.125000E-7	7.290305E-3
1.125500E-7	7.139566E-3
1.126000E-7	6.961419E-3
1.126500E-7	6.814106E-3
1.127000E-7	6.704478E-3
1.127500E-7	6.606840E-3
1.128000E-7	6.509202E-3
1.128500E-7	6.444110E-3
1.129000E-7	6.425267E-3
1.129500E-7	6.442397E-3
1.130000E-7	6.505776E-3
1.130500E-7	6.634247E-3
1.131000E-7	6.796977E-3
1.131500E-7	6.951142E-3
1.132000E-7	7.081326E-3
1.132500E-7	7.190955E-3
1.133000E-7	7.247482E-3
1.133500E-7	7.218362E-3
1.134000E-7	7.136141E-3
1.134500E-7	7.053920E-3
1.135000E-7	6.954569E-3
1.135500E-7	6.812394E-3
1.136000E-7	6.685636E-3
1.136500E-7	6.594849E-3
1.137000E-7	6.500637E-3
1.137500E-7	6.409851E-3
1.138000E-7	6.380730E-3
1.138500E-7	6.416702E-3
1.139000E-7	6.498923E-3
1.139500E-7	6.608552E-3
1.140000E-7	6.723319E-3
1.140500E-7	6.808967E-3
1.141000E-7	6.894614E-3
1.141500E-7	6.985401E-3
1.142000E-7	7.041928E-3
1.142500E-7	7.062484E-3
1.143000E-7	7.069335E-3
1.143500E-7	7.045354E-3
1.144000E-7	7.012808E-3
1.144500E-7	7.017947E-3
1.145000E-7	7.019660E-3
1.145500E-7	6.976836E-3
1.146000E-7	6.940864E-3
1.146500E-7	6.934012E-3
1.147000E-7	6.913457E-3
1.147500E-7	6.918595E-3
1.148000E-7	7.007669E-3
1.148500E-7	7.113871E-3
1.149000E-7	7.165259E-3
1.149500E-7	7.213222E-3
1.150000E-7	7.285165E-3
1.150500E-7	7.331415E-3
1.151000E-7	7.341692E-3
1.151500E-7	7.338266E-3
1.152000E-7	7.326276E-3
1.152500E-7	7.288591E-3
1.153000E-7	7.214934E-3
1.153500E-7	7.108732E-3
1.154000E-7	7.002529E-3
1.154500E-7	6.910030E-3
1.155000E-7	6.824383E-3
1.155500E-7	6.752439E-3
1.156000E-7	6.725032E-3
1.156500E-7	6.735310E-3
1.157000E-7	6.735310E-3
1.157500E-7	6.745588E-3
1.158000E-7	6.762718E-3
1.158500E-7	6.754153E-3
1.159000E-7	6.725033E-3
1.159500E-7	6.737024E-3
1.160000E-7	6.764431E-3
1.160500E-7	6.776421E-3
1.161000E-7	6.796976E-3
1.161500E-7	6.812393E-3
1.162000E-7	6.810680E-3
1.162500E-7	6.832948E-3
1.163000E-7	6.901466E-3
1.163500E-7	6.968271E-3
1.164000E-7	7.035076E-3
1.164500E-7	7.144705E-3
1.165000E-7	7.268037E-3
1.165500E-7	7.343407E-3
1.166000E-7	7.403360E-3
1.166500E-7	7.447897E-3
1.167000E-7	7.420490E-3
1.167500E-7	7.350259E-3
1.168000E-7	7.295444E-3
1.168500E-7	7.218362E-3
1.169000E-7	7.100168E-3
1.169500E-7	7.002530E-3
1.170000E-7	6.940864E-3
1.170500E-7	6.863781E-3
1.171000E-7	6.764430E-3
1.171500E-7	6.692486E-3
1.172000E-7	6.668504E-3
1.172500E-7	6.663365E-3
1.173000E-7	6.656513E-3
1.173500E-7	6.635958E-3
1.174000E-7	6.605125E-3
1.174500E-7	6.577718E-3
1.175000E-7	6.565727E-3
1.175500E-7	6.565727E-3
1.176000E-7	6.584570E-3
1.176500E-7	6.625680E-3
1.177000E-7	6.704476E-3
1.177500E-7	6.832947E-3
1.178000E-7	6.963131E-3
1.178500E-7	7.060769E-3
1.179000E-7	7.129287E-3
1.179500E-7	7.172111E-3
1.180000E-7	7.161833E-3
1.180500E-7	7.089889E-3
1.181000E-7	6.995677E-3
1.181500E-7	6.877484E-3
1.182000E-7	6.745587E-3
1.182500E-7	6.623968E-3
1.183000E-7	6.526330E-3
1.183500E-7	6.430405E-3
1.184000E-7	6.360174E-3
1.184500E-7	6.360174E-3
1.185000E-7	6.423553E-3
1.185500E-7	6.522904E-3
1.186000E-7	6.627394E-3
1.186500E-7	6.728459E-3
1.187000E-7	6.822671E-3
1.187500E-7	6.868921E-3
1.188000E-7	6.846652E-3
1.188500E-7	6.800403E-3
1.189000E-7	6.790125E-3
1.189500E-7	6.767857E-3
1.190000E-7	6.711330E-3
1.190500E-7	6.668506E-3
1.191000E-7	6.642811E-3
1.191500E-7	6.577719E-3
1.192000E-7	6.502349E-3
1.192500E-7	6.492071E-3
1.193000E-7	6.521191E-3
1.193500E-7	6.521191E-3
1.194000E-7	6.514339E-3
1.194500E-7	6.528043E-3
1.195000E-7	6.528043E-3
1.195500E-7	6.492071E-3
1.196000E-7	6.461237E-3
1.196500E-7	6.432117E-3
1.197000E-7	6.368738E-3
1.197500E-7	6.277952E-3
1.198000E-7	6.187166E-3
1.198500E-7	6.103232E-3
1.199000E-7	6.055270E-3
1.199500E-7	6.053557E-3
1.200000E-7	6.096381E-3
1.200500E-7	6.192306E-3
1.201000E-7	6.353323E-3
1.201500E-7	6.555451E-3
1.202000E-7	6.755866E-3
1.202500E-7	6.940864E-3
1.203000E-7	7.122437E-3
1.203500E-7	7.281740E-3
1.204000E-7	7.401646E-3
1.204500E-7	7.490719E-3
1.205000E-7	7.531830E-3
1.205500E-7	7.512987E-3
1.206000E-7	7.489006E-3
1.206500E-7	7.473589E-3
1.207000E-7	7.446182E-3
1.207500E-7	7.394794E-3
1.208000E-7	7.346831E-3
1.208500E-7	7.310860E-3
1.209000E-7	7.254333E-3
1.209500E-7	7.204657E-3
1.210000E-7	7.180676E-3
1.210500E-7	7.139566E-3
1.211000E-7	7.033363E-3
1.211500E-7	6.915170E-3
1.212000E-7	6.829522E-3
1.212500E-7	6.766143E-3
1.213000E-7	6.707903E-3
1.213500E-7	6.685634E-3
1.214000E-7	6.716467E-3
1.214500E-7	6.772995E-3
1.215000E-7	6.853503E-3
1.215500E-7	6.946002E-3
1.216000E-7	7.055631E-3
1.216500E-7	7.192667E-3
1.217000E-7	7.341693E-3
1.217500E-7	7.435906E-3
1.218000E-7	7.453035E-3
1.218500E-7	7.423915E-3
1.219000E-7	7.350258E-3
1.219500E-7	7.208084E-3
1.220000E-7	7.011095E-3
1.220500E-7	6.795264E-3
1.221000E-7	6.581145E-3
1.221500E-7	6.372166E-3
1.222000E-7	6.199158E-3
1.222500E-7	6.053557E-3
1.223000E-7	5.942216E-3
1.223500E-7	5.887401E-3
1.224000E-7	5.921660E-3
1.224500E-7	6.038141E-3
1.225000E-7	6.204296E-3
1.225500E-7	6.389295E-3
1.226000E-7	6.570867E-3
1.226500E-7	6.755865E-3
1.227000E-7	6.910030E-3
1.227500E-7	6.992252E-3
1.228000E-7	7.023085E-3
1.228500E-7	7.024798E-3
1.229000E-7	6.966558E-3
1.229500E-7	6.832948E-3
1.230000E-7	6.659940E-3
1.230500E-7	6.486933E-3
1.231000E-7	6.315638E-3
1.231500E-7	6.161473E-3
1.232000E-7	6.072400E-3
1.232500E-7	6.029576E-3
1.233000E-7	6.021011E-3
1.233500E-7	6.068974E-3
1.234000E-7	6.197445E-3
1.234500E-7	6.358461E-3
1.235000E-7	6.540034E-3
1.235500E-7	6.730171E-3
1.236000E-7	6.896326E-3
1.236500E-7	7.048779E-3
1.237000E-7	7.204657E-3
1.237500E-7	7.315999E-3
1.238000E-7	7.336554E-3
1.238500E-7	7.286879E-3
1.239000E-7	7.220074E-3
1.239500E-7	7.120723E-3
1.240000E-7	6.971697E-3
1.240500E-7	6.778134E-3
1.241000E-7	6.594848E-3
1.241500E-7	6.433831E-3
1.242000E-7	6.300222E-3
1.242500E-7	6.190593E-3
1.243000E-7	6.142630E-3
1.243500E-7	6.166612E-3
1.244000E-7	6.241981E-3
1.244500E-7	6.358461E-3
1.245000E-7	6.533182E-3
1.245500E-7	6.778133E-3
1.246000E-7	7.050492E-3
1.246500E-7	7.304008E-3
1.247000E-7	7.524978E-3
1.247500E-7	7.704838E-3
1.248000E-7	7.838447E-3
1.248500E-7	7.925808E-3
1.249000E-7	7.953215E-3
1.249500E-7	7.918956E-3
1.250000E-7	7.819606E-3
1.250500E-7	7.684283E-3
1.251000E-7	7.530118E-3
1.251500E-7	7.372527E-3
1.252000E-7	7.221787E-3
1.252500E-7	7.088177E-3
1.253000E-7	6.971697E-3
1.253500E-7	6.848365E-3
1.254000E-7	6.725033E-3
1.254500E-7	6.642811E-3
1.255000E-7	6.605126E-3
1.255500E-7	6.567442E-3
1.256000E-7	6.514340E-3
1.256500E-7	6.495498E-3
1.257000E-7	6.526331E-3
1.257500E-7	6.581146E-3
1.258000E-7	6.654802E-3
1.258500E-7	6.772996E-3
1.259000E-7	6.904893E-3
1.259500E-7	7.009382E-3
1.260000E-7	7.093317E-3
1.260500E-7	7.168687E-3
1.261000E-7	7.197807E-3
1.261500E-7	7.177251E-3
1.262000E-7	7.108733E-3
1.262500E-7	6.992253E-3
1.263000E-7	6.853504E-3
1.263500E-7	6.738736E-3
1.264000E-7	6.668505E-3
1.264500E-7	6.651376E-3
1.265000E-7	6.702764E-3
1.265500E-7	6.783273E-3
1.266000E-7	6.862068E-3
1.266500E-7	6.975123E-3
1.267000E-7	7.122437E-3
1.267500E-7	7.242343E-3
1.268000E-7	7.331417E-3
1.268500E-7	7.410212E-3
1.269000E-7	7.435906E-3
1.269500E-7	7.405073E-3
1.270000E-7	7.363962E-3
1.270500E-7	7.329703E-3
1.271000E-7	7.307435E-3
1.271500E-7	7.322852E-3
1.272000E-7	7.355398E-3
1.272500E-7	7.355397E-3
1.273000E-7	7.334842E-3
1.273500E-7	7.319426E-3
1.274000E-7	7.295444E-3
1.274500E-7	7.266324E-3
1.275000E-7	7.247482E-3
1.275500E-7	7.204658E-3
1.276000E-7	7.137853E-3
1.276500E-7	7.098455E-3
1.277000E-7	7.084751E-3
1.277500E-7	7.052205E-3
1.278000E-7	7.045353E-3
1.278500E-7	7.093316E-3
1.279000E-7	7.139565E-3
1.279500E-7	7.172111E-3
1.280000E-7	7.204657E-3
1.280500E-7	7.221787E-3
1.281000E-7	7.196093E-3
1.281500E-7	7.142991E-3
1.282000E-7	7.047066E-3
1.282500E-7	6.899753E-3
1.283000E-7	6.752440E-3
1.283500E-7	6.629108E-3
1.284000E-7	6.502349E-3
1.284500E-7	6.385869E-3
1.285000E-7	6.308786E-3
1.285500E-7	6.265962E-3
1.286000E-7	6.255684E-3
1.286500E-7	6.271101E-3
1.287000E-7	6.291656E-3
1.287500E-7	6.325915E-3
1.288000E-7	6.408136E-3
1.288500E-7	6.509200E-3
1.289000E-7	6.579431E-3
1.289500E-7	6.661653E-3
1.290000E-7	6.810680E-3
1.290500E-7	6.973410E-3
1.291000E-7	7.108733E-3
1.291500E-7	7.249194E-3
1.292000E-7	7.427341E-3
1.292500E-7	7.600348E-3
1.293000E-7	7.694560E-3
1.293500E-7	7.711690E-3
1.294000E-7	7.697986E-3
1.294500E-7	7.655162E-3
1.295000E-7	7.543820E-3
1.295500E-7	7.357109E-3
1.296000E-7	7.153268E-3
1.296500E-7	6.942575E-3
1.297000E-7	6.690772E-3
1.297500E-7	6.447534E-3
1.298000E-7	6.272813E-3
1.298500E-7	6.156333E-3
1.299000E-7	6.094667E-3
1.299500E-7	6.108371E-3
1.300000E-7	6.192306E-3
1.300500E-7	6.317351E-3
1.301000E-7	6.488646E-3
1.301500E-7	6.692486E-3
1.302000E-7	6.898040E-3
1.302500E-7	7.083038E-3
1.303000E-7	7.228639E-3
1.303500E-7	7.300583E-3
1.304000E-7	7.305722E-3
1.304500E-7	7.256046E-3
1.305000E-7	7.139566E-3
1.305500E-7	7.005956E-3
1.306000E-7	6.882624E-3
1.306500E-7	6.761004E-3
1.307000E-7	6.658227E-3
1.307500E-7	6.613690E-3
1.308000E-7	6.622255E-3
1.308500E-7	6.675356E-3
1.309000E-7	6.771281E-3
1.309500E-7	6.891188E-3
1.310000E-7	7.026510E-3
1.310500E-7	7.189240E-3
1.311000E-7	7.339980E-3
1.311500E-7	7.415350E-3
1.312000E-7	7.435905E-3
1.312500E-7	7.418776E-3
1.313000E-7	7.348545E-3
1.313500E-7	7.233778E-3
1.314000E-7	7.119010E-3
1.314500E-7	7.000817E-3
1.315000E-7	6.889475E-3
1.315500E-7	6.819244E-3
1.316000E-7	6.790124E-3
1.316500E-7	6.790124E-3
1.317000E-7	6.822670E-3
1.317500E-7	6.896326E-3
1.318000E-7	6.997390E-3
1.318500E-7	7.103593E-3
1.319000E-7	7.182389E-3
1.319500E-7	7.204657E-3
1.320000E-7	7.178963E-3
1.320500E-7	7.146417E-3
1.321000E-7	7.098455E-3
1.321500E-7	7.028224E-3
1.322000E-7	6.959706E-3
1.322500E-7	6.922021E-3
1.323000E-7	6.937438E-3
1.323500E-7	6.988826E-3
1.324000E-7	7.060770E-3
1.324500E-7	7.175537E-3
1.325000E-7	7.343406E-3
1.325500E-7	7.504423E-3
1.326000E-7	7.646597E-3
1.326500E-7	7.775068E-3
1.327000E-7	7.826457E-3
1.327500E-7	7.764791E-3
1.328000E-7	7.677431E-3
1.328500E-7	7.593497E-3
1.329000E-7	7.435906E-3
1.329500E-7	7.232065E-3
1.330000E-7	7.072761E-3
1.330500E-7	6.963132E-3
1.331000E-7	6.856930E-3
1.331500E-7	6.786699E-3
1.332000E-7	6.803828E-3
1.332500E-7	6.851791E-3
1.333000E-7	6.884337E-3
1.333500E-7	6.930586E-3
1.334000E-7	6.999104E-3
1.334500E-7	7.052205E-3
1.335000E-7	7.057343E-3
1.335500E-7	7.014520E-3
1.336000E-7	6.939150E-3
1.336500E-7	6.858641E-3
1.337000E-7	6.779846E-3
1.337500E-7	6.692485E-3
1.338000E-7	6.634245E-3
1.338500E-7	6.629107E-3
1.339000E-7	6.642810E-3
1.339500E-7	6.677070E-3
1.340000E-7	6.766143E-3
1.340500E-7	6.891189E-3
1.341000E-7	6.997392E-3
1.341500E-7	7.084752E-3
1.342000E-7	7.175538E-3
1.342500E-7	7.247482E-3
1.343000E-7	7.288593E-3
1.343500E-7	7.307435E-3
1.344000E-7	7.309148E-3
1.344500E-7	7.298870E-3
1.345000E-7	7.285167E-3
1.345500E-7	7.254333E-3
1.346000E-7	7.220074E-3
1.346500E-7	7.196092E-3
1.347000E-7	7.170398E-3
1.347500E-7	7.158407E-3
1.348000E-7	7.187527E-3
1.348500E-7	7.237202E-3
1.349000E-7	7.252619E-3
1.349500E-7	7.242341E-3
1.350000E-7	7.225212E-3
1.350500E-7	7.202944E-3
1.351000E-7	7.158407E-3
1.351500E-7	7.103593E-3
1.352000E-7	7.050492E-3
1.352500E-7	7.004242E-3
1.353000E-7	6.978548E-3
1.353500E-7	6.946002E-3
1.354000E-7	6.906604E-3
1.354500E-7	6.858642E-3
1.355000E-7	6.800402E-3
1.355500E-7	6.735310E-3
1.356000E-7	6.702764E-3
1.356500E-7	6.682208E-3
1.357000E-7	6.642811E-3
1.357500E-7	6.611978E-3
1.358000E-7	6.603413E-3
1.358500E-7	6.564015E-3
1.359000E-7	6.502349E-3
1.359500E-7	6.459526E-3
1.360000E-7	6.440683E-3
1.360500E-7	6.426980E-3
1.361000E-7	6.442396E-3
1.361500E-7	6.492072E-3
1.362000E-7	6.550312E-3
1.362500E-7	6.618829E-3
1.363000E-7	6.718180E-3
1.363500E-7	6.844938E-3
1.364000E-7	6.978548E-3
1.364500E-7	7.076186E-3
1.365000E-7	7.124148E-3
1.365500E-7	7.165259E-3
1.366000E-7	7.225212E-3
1.366500E-7	7.254332E-3
1.367000E-7	7.256045E-3
1.367500E-7	7.244055E-3
1.368000E-7	7.220074E-3
1.368500E-7	7.165260E-3
1.369000E-7	7.117298E-3
1.369500E-7	7.088178E-3
1.370000E-7	7.076187E-3
1.370500E-7	7.093317E-3
1.371000E-7	7.142992E-3
1.371500E-7	7.182390E-3
1.372000E-7	7.223500E-3
1.372500E-7	7.269750E-3
1.373000E-7	7.273176E-3
1.373500E-7	7.226926E-3
1.374000E-7	7.184102E-3
1.374500E-7	7.163547E-3
1.375000E-7	7.144704E-3
1.375500E-7	7.141278E-3
1.376000E-7	7.132714E-3
1.376500E-7	7.088177E-3
1.377000E-7	7.043640E-3
1.377500E-7	7.029937E-3
1.378000E-7	7.012807E-3
1.378500E-7	6.980261E-3
1.379000E-7	6.971696E-3
1.379500E-7	6.975122E-3
1.380000E-7	6.975122E-3
1.380500E-7	6.981974E-3
1.381000E-7	6.988826E-3
1.381500E-7	6.973409E-3
1.382000E-7	6.954567E-3
1.382500E-7	6.939151E-3
1.383000E-7	6.916882E-3
1.383500E-7	6.903179E-3
1.384000E-7	6.935725E-3
1.384500E-7	7.000816E-3
1.385000E-7	7.072760E-3
1.385500E-7	7.158407E-3
1.386000E-7	7.268036E-3
1.386500E-7	7.401646E-3
1.387000E-7	7.526691E-3
1.387500E-7	7.624329E-3
1.388000E-7	7.696272E-3
1.388500E-7	7.757939E-3
1.389000E-7	7.793911E-3
1.389500E-7	7.790485E-3
1.390000E-7	7.756226E-3
1.390500E-7	7.701412E-3
1.391000E-7	7.612338E-3
1.391500E-7	7.497571E-3
1.392000E-7	7.393081E-3
1.392500E-7	7.305721E-3
1.393000E-7	7.252620E-3
1.393500E-7	7.228639E-3
1.394000E-7	7.209796E-3
1.394500E-7	7.202945E-3
1.395000E-7	7.218362E-3
1.395500E-7	7.247482E-3
1.396000E-7	7.293732E-3
1.396500E-7	7.377667E-3
1.397000E-7	7.478731E-3
1.397500E-7	7.557526E-3
1.398000E-7	7.646599E-3
1.398500E-7	7.761367E-3
1.399000E-7	7.848727E-3
1.399500E-7	7.891550E-3
1.400000E-7	7.922383E-3
1.400500E-7	7.900115E-3
1.401000E-7	7.773356E-3
1.401500E-7	7.590071E-3
1.402000E-7	7.417063E-3
1.402500E-7	7.242342E-3
1.403000E-7	7.045353E-3
1.403500E-7	6.865494E-3
1.404000E-7	6.726745E-3
1.404500E-7	6.593136E-3
1.405000E-7	6.505775E-3
1.405500E-7	6.514340E-3
1.406000E-7	6.574293E-3
1.406500E-7	6.632533E-3
1.407000E-7	6.713042E-3
1.407500E-7	6.839800E-3
1.408000E-7	6.952854E-3
1.408500E-7	7.031650E-3
1.409000E-7	7.103594E-3
1.409500E-7	7.163547E-3
1.410000E-7	7.223500E-3
1.410500E-7	7.298870E-3
1.411000E-7	7.341694E-3
1.411500E-7	7.331417E-3
1.412000E-7	7.319427E-3
1.412500E-7	7.324566E-3
1.413000E-7	7.305723E-3
1.413500E-7	7.264613E-3
1.414000E-7	7.223502E-3
1.414500E-7	7.185817E-3
1.415000E-7	7.139567E-3
1.415500E-7	7.091604E-3
1.416000E-7	7.040216E-3
1.416500E-7	6.981975E-3
1.417000E-7	6.932300E-3
1.417500E-7	6.882624E-3
1.418000E-7	6.831236E-3
1.418500E-7	6.817532E-3
1.419000E-7	6.829523E-3
1.419500E-7	6.827810E-3
1.420000E-7	6.815819E-3
1.420500E-7	6.815819E-3
1.421000E-7	6.810680E-3
1.421500E-7	6.778134E-3
1.422000E-7	6.743875E-3
1.422500E-7	6.755866E-3
1.423000E-7	6.815819E-3
1.423500E-7	6.894615E-3
1.424000E-7	6.976836E-3
1.424500E-7	7.069335E-3
1.425000E-7	7.165260E-3
1.425500E-7	7.230352E-3
1.426000E-7	7.266324E-3
1.426500E-7	7.295444E-3
1.427000E-7	7.278315E-3
1.427500E-7	7.216649E-3
1.428000E-7	7.151557E-3
1.428500E-7	7.076187E-3
1.429000E-7	6.947716E-3
1.429500E-7	6.788412E-3
1.430000E-7	6.647950E-3
1.430500E-7	6.543460E-3
1.431000E-7	6.454387E-3
1.431500E-7	6.396147E-3
1.432000E-7	6.368739E-3
1.432500E-7	6.394434E-3
1.433000E-7	6.495498E-3
1.433500E-7	6.625682E-3
1.434000E-7	6.762717E-3
1.434500E-7	6.937438E-3
1.435000E-7	7.158408E-3
1.435500E-7	7.358823E-3
1.436000E-7	7.519840E-3
1.436500E-7	7.663728E-3
1.437000E-7	7.787060E-3
1.437500E-7	7.853865E-3
1.438000E-7	7.841874E-3
1.438500E-7	7.751088E-3
1.439000E-7	7.612339E-3
1.439500E-7	7.441044E-3
1.440000E-7	7.235490E-3
1.440500E-7	7.016233E-3
1.441000E-7	6.817531E-3
1.441500E-7	6.651375E-3
1.442000E-7	6.555450E-3
1.442500E-7	6.550311E-3
1.443000E-7	6.618829E-3
1.443500E-7	6.718180E-3
1.444000E-7	6.844938E-3
1.444500E-7	7.000817E-3
1.445000E-7	7.136140E-3
1.445500E-7	7.226926E-3
1.446000E-7	7.298870E-3
1.446500E-7	7.348546E-3
1.447000E-7	7.351972E-3
1.447500E-7	7.317713E-3
1.448000E-7	7.257760E-3
1.448500E-7	7.149844E-3
1.449000E-7	6.999105E-3
1.449500E-7	6.858643E-3
1.450000E-7	6.754153E-3
1.450500E-7	6.661654E-3
1.451000E-7	6.593136E-3
1.451500E-7	6.541747E-3
1.452000E-7	6.492071E-3
1.452500E-7	6.462951E-3
1.453000E-7	6.480080E-3
1.453500E-7	6.517765E-3
1.454000E-7	6.562302E-3
1.454500E-7	6.623968E-3
1.455000E-7	6.689060E-3
1.455500E-7	6.716467E-3
1.456000E-7	6.749013E-3
1.456500E-7	6.815818E-3
1.457000E-7	6.887762E-3
1.457500E-7	6.932299E-3
1.458000E-7	6.957993E-3
1.458500E-7	6.961419E-3
1.459000E-7	6.937438E-3
1.459500E-7	6.887762E-3
1.460000E-7	6.815819E-3
1.460500E-7	6.740449E-3
1.461000E-7	6.687348E-3
1.461500E-7	6.649663E-3
1.462000E-7	6.613691E-3
1.462500E-7	6.596562E-3
1.463000E-7	6.599987E-3
1.463500E-7	6.603413E-3
1.464000E-7	6.611978E-3
1.464500E-7	6.653088E-3
1.465000E-7	6.709616E-3
1.465500E-7	6.776420E-3
1.466000E-7	6.855216E-3
1.466500E-7	6.920308E-3
1.467000E-7	6.951141E-3
1.467500E-7	6.971696E-3
1.468000E-7	6.980261E-3
1.468500E-7	6.981974E-3
1.469000E-7	7.007668E-3
1.469500E-7	7.045353E-3
1.470000E-7	7.074473E-3
1.470500E-7	7.096742E-3
1.471000E-7	7.148130E-3
1.471500E-7	7.201232E-3
1.472000E-7	7.257759E-3
1.472500E-7	7.327990E-3
1.473000E-7	7.389656E-3
1.473500E-7	7.411924E-3
1.474000E-7	7.422202E-3
1.474500E-7	7.435906E-3
1.475000E-7	7.415350E-3
1.475500E-7	7.372527E-3
1.476000E-7	7.338268E-3
1.476500E-7	7.312574E-3
1.477000E-7	7.298870E-3
1.477500E-7	7.293731E-3
1.478000E-7	7.302296E-3
1.478500E-7	7.304009E-3
1.479000E-7	7.300583E-3
1.479500E-7	7.317713E-3
1.480000E-7	7.362249E-3
1.480500E-7	7.430767E-3
1.481000E-7	7.478730E-3
1.481500E-7	7.468452E-3
1.482000E-7	7.447897E-3
1.482500E-7	7.439332E-3
1.483000E-7	7.415350E-3
1.483500E-7	7.377665E-3
1.484000E-7	7.353684E-3
1.484500E-7	7.333129E-3
1.485000E-7	7.290305E-3
1.485500E-7	7.233778E-3
1.486000E-7	7.184102E-3
1.486500E-7	7.137852E-3
1.487000E-7	7.093316E-3
1.487500E-7	7.050492E-3
1.488000E-7	7.014520E-3
1.488500E-7	6.995678E-3
1.489000E-7	6.983687E-3
1.489500E-7	6.995678E-3
1.490000E-7	7.048779E-3
1.490500E-7	7.125862E-3
1.491000E-7	7.190953E-3
1.491500E-7	7.266323E-3
1.492000E-7	7.365674E-3
1.492500E-7	7.449608E-3
1.493000E-7	7.512987E-3
1.493500E-7	7.571227E-3
1.494000E-7	7.600348E-3
1.494500E-7	7.569515E-3
1.495000E-7	7.487293E-3
1.495500E-7	7.345118E-3
1.496000E-7	7.165259E-3
1.496500E-7	7.029936E-3
1.497000E-7	6.939150E-3
1.497500E-7	6.843225E-3
1.498000E-7	6.788410E-3
1.498500E-7	6.819243E-3
1.499000E-7	6.879197E-3
1.499500E-7	6.939150E-3
1.500000E-7	7.019659E-3
1.500500E-7	7.115584E-3
1.501000E-7	7.175537E-3
1.501500E-7	7.218361E-3
1.502000E-7	7.242343E-3
1.502500E-7	7.214936E-3
1.503000E-7	7.131001E-3
1.503500E-7	7.035076E-3
1.504000E-7	6.946003E-3
1.504500E-7	6.832948E-3
1.505000E-7	6.711329E-3
1.505500E-7	6.644524E-3
1.506000E-7	6.661653E-3
1.506500E-7	6.747301E-3
1.507000E-7	6.870633E-3
1.507500E-7	7.021372E-3
1.508000E-7	7.190954E-3
1.508500E-7	7.363962E-3
1.509000E-7	7.506136E-3
1.509500E-7	7.600348E-3
1.510000E-7	7.648311E-3
1.510500E-7	7.651737E-3
1.511000E-7	7.602062E-3
1.511500E-7	7.489007E-3
1.512000E-7	7.334842E-3
1.512500E-7	7.180677E-3
1.513000E-7	7.019660E-3
1.513500E-7	6.848365E-3
1.514000E-7	6.697625E-3
1.514500E-7	6.591423E-3
1.515000E-7	6.512627E-3
1.515500E-7	6.430405E-3
1.516000E-7	6.373878E-3
1.516500E-7	6.363600E-3
1.517000E-7	6.394433E-3
1.517500E-7	6.459524E-3
1.518000E-7	6.543459E-3
1.518500E-7	6.630819E-3
1.519000E-7	6.713041E-3
1.519500E-7	6.793549E-3
1.520000E-7	6.863780E-3
1.520500E-7	6.894613E-3
1.521000E-7	6.908317E-3
1.521500E-7	6.903178E-3
1.522000E-7	6.862068E-3
1.522500E-7	6.800402E-3
1.523000E-7	6.755865E-3
1.523500E-7	6.716468E-3
1.524000E-7	6.689061E-3
1.524500E-7	6.730171E-3
1.525000E-7	6.831235E-3
1.525500E-7	6.928873E-3
1.526000E-7	7.023085E-3
1.526500E-7	7.146418E-3
1.527000E-7	7.278315E-3
1.527500E-7	7.401647E-3
1.528000E-7	7.533544E-3
1.528500E-7	7.626043E-3
1.529000E-7	7.665441E-3
1.529500E-7	7.675718E-3
1.530000E-7	7.656876E-3
1.530500E-7	7.583219E-3
1.531000E-7	7.512988E-3
1.531500E-7	7.489007E-3
1.532000E-7	7.473590E-3
1.532500E-7	7.453035E-3
1.533000E-7	7.461600E-3
1.533500E-7	7.477016E-3
1.534000E-7	7.451322E-3
1.534500E-7	7.405072E-3
1.535000E-7	7.360536E-3
1.535500E-7	7.304008E-3
1.536000E-7	7.211509E-3
1.536500E-7	7.096741E-3
1.537000E-7	6.981974E-3
1.537500E-7	6.906604E-3
1.538000E-7	6.867206E-3
1.538500E-7	6.841512E-3
1.539000E-7	6.839799E-3
1.539500E-7	6.911743E-3
1.540000E-7	7.023084E-3
1.540500E-7	7.108732E-3
1.541000E-7	7.187527E-3
1.541500E-7	7.297156E-3
1.542000E-7	7.411924E-3
1.542500E-7	7.492432E-3
1.543000E-7	7.535256E-3
1.543500E-7	7.524978E-3
1.544000E-7	7.477016E-3
1.544500E-7	7.437618E-3
1.545000E-7	7.393082E-3
1.545500E-7	7.312573E-3
1.546000E-7	7.225213E-3
1.546500E-7	7.175537E-3
1.547000E-7	7.154982E-3
1.547500E-7	7.122436E-3
1.548000E-7	7.088177E-3
1.548500E-7	7.100168E-3
1.549000E-7	7.139566E-3
1.549500E-7	7.168686E-3
1.550000E-7	7.194380E-3
1.550500E-7	7.266324E-3
1.551000E-7	7.377666E-3
1.551500E-7	7.471878E-3
1.552000E-7	7.509563E-3
1.552500E-7	7.531831E-3
1.553000E-7	7.554099E-3
1.553500E-7	7.554099E-3
1.554000E-7	7.518127E-3
1.554500E-7	7.487294E-3
1.555000E-7	7.441044E-3
1.555500E-7	7.333129E-3
1.556000E-7	7.168686E-3
1.556500E-7	6.995678E-3
1.557000E-7	6.839800E-3
1.557500E-7	6.685635E-3
1.558000E-7	6.557164E-3
1.558500E-7	6.471516E-3
1.559000E-7	6.437257E-3
1.559500E-7	6.450961E-3
1.560000E-7	6.541747E-3
1.560500E-7	6.677070E-3
1.561000E-7	6.815819E-3
1.561500E-7	6.963132E-3
1.562000E-7	7.122436E-3
1.562500E-7	7.249194E-3
1.563000E-7	7.314286E-3
1.563500E-7	7.348545E-3
1.564000E-7	7.365675E-3
1.564500E-7	7.353684E-3
1.565000E-7	7.300583E-3
1.565500E-7	7.221787E-3
1.566000E-7	7.156695E-3
1.566500E-7	7.100168E-3
1.567000E-7	7.023085E-3
1.567500E-7	6.961419E-3
1.568000E-7	6.956280E-3
1.568500E-7	6.985400E-3
1.569000E-7	7.007669E-3
1.569500E-7	7.038502E-3
1.570000E-7	7.086465E-3
1.570500E-7	7.119011E-3
1.571000E-7	7.153270E-3
1.571500E-7	7.189242E-3
1.572000E-7	7.178965E-3
1.572500E-7	7.139567E-3
1.573000E-7	7.119011E-3
1.573500E-7	7.113872E-3
1.574000E-7	7.095030E-3
1.574500E-7	7.084752E-3
1.575000E-7	7.081326E-3
1.575500E-7	7.071049E-3
1.576000E-7	7.086465E-3
1.576500E-7	7.166974E-3
1.577000E-7	7.264612E-3
1.577500E-7	7.331417E-3
1.578000E-7	7.405074E-3
1.578500E-7	7.490721E-3
1.579000E-7	7.555813E-3
1.579500E-7	7.600349E-3
1.580000E-7	7.646599E-3
1.580500E-7	7.668867E-3
1.581000E-7	7.646598E-3
1.581500E-7	7.629468E-3
1.582000E-7	7.634607E-3
1.582500E-7	7.602061E-3
1.583000E-7	7.557524E-3
1.583500E-7	7.554098E-3
1.584000E-7	7.569515E-3
1.584500E-7	7.564376E-3
1.585000E-7	7.557524E-3
1.585500E-7	7.569515E-3
1.586000E-7	7.571228E-3
1.586500E-7	7.536970E-3
1.587000E-7	7.444471E-3
1.587500E-7	7.286880E-3
1.588000E-7	7.095030E-3
1.588500E-7	6.858643E-3
1.589000E-7	6.579432E-3
1.589500E-7	6.329342E-3
1.590000E-7	6.149482E-3
1.590500E-7	5.995317E-3
1.591000E-7	5.892540E-3
1.591500E-7	5.899392E-3
1.592000E-7	5.978187E-3
1.592500E-7	6.091242E-3
1.593000E-7	6.250546E-3
1.593500E-7	6.409850E-3
1.594000E-7	6.517766E-3
1.594500E-7	6.601701E-3
1.595000E-7	6.678783E-3
1.595500E-7	6.711329E-3
1.596000E-7	6.711329E-3
1.596500E-7	6.694200E-3
1.597000E-7	6.654802E-3
1.597500E-7	6.591423E-3
1.598000E-7	6.541747E-3
1.598500E-7	6.486933E-3
1.599000E-7	6.421841E-3
1.599500E-7	6.391008E-3
1.600000E-7	6.408137E-3
1.600500E-7	6.435544E-3
1.601000E-7	6.461238E-3
1.601500E-7	6.498923E-3
1.602000E-7	6.529757E-3
1.602500E-7	6.540034E-3
1.603000E-7	6.552025E-3
1.603500E-7	6.579432E-3
1.604000E-7	6.634246E-3
1.604500E-7	6.711329E-3
1.605000E-7	6.798689E-3
1.605500E-7	6.886050E-3
1.606000E-7	6.973410E-3
1.606500E-7	7.071048E-3
1.607000E-7	7.178963E-3
1.607500E-7	7.288592E-3
1.608000E-7	7.387943E-3
1.608500E-7	7.473590E-3
1.609000E-7	7.540395E-3
1.609500E-7	7.581506E-3
1.610000E-7	7.607200E-3
1.610500E-7	7.622617E-3
1.611000E-7	7.603774E-3
1.611500E-7	7.543821E-3
1.612000E-7	7.461600E-3
1.612500E-7	7.384517E-3
1.613000E-7	7.317712E-3
1.613500E-7	7.256046E-3
1.614000E-7	7.187528E-3
1.614500E-7	7.125862E-3
1.615000E-7	7.084751E-3
1.615500E-7	7.047066E-3
1.616000E-7	7.009381E-3
1.616500E-7	6.995678E-3
1.617000E-7	7.012807E-3
1.617500E-7	7.019659E-3
1.618000E-7	7.017946E-3
1.618500E-7	7.041927E-3
1.619000E-7	7.084751E-3
1.619500E-7	7.110445E-3
1.620000E-7	7.120723E-3
1.620500E-7	7.144704E-3
1.621000E-7	7.172112E-3
1.621500E-7	7.177251E-3
1.622000E-7	7.177251E-3
1.622500E-7	7.184103E-3
1.623000E-7	7.180677E-3
1.623500E-7	7.180677E-3
1.624000E-7	7.187529E-3
1.624500E-7	7.209797E-3
1.625000E-7	7.274889E-3
1.625500E-7	7.360536E-3
1.626000E-7	7.420489E-3
1.626500E-7	7.500997E-3
1.627000E-7	7.632894E-3
1.627500E-7	7.749375E-3
1.628000E-7	7.781920E-3
1.628500E-7	7.797337E-3
1.629000E-7	7.807615E-3
1.629500E-7	7.721967E-3
1.630000E-7	7.555811E-3
1.630500E-7	7.403359E-3
1.631000E-7	7.249194E-3
1.631500E-7	7.062483E-3
1.632000E-7	6.898040E-3
1.632500E-7	6.820957E-3
1.633000E-7	6.786698E-3
1.633500E-7	6.764430E-3
1.634000E-7	6.761004E-3
1.634500E-7	6.802115E-3
1.635000E-7	6.899753E-3
1.635500E-7	7.009381E-3
1.636000E-7	7.055631E-3
1.636500E-7	7.060770E-3
1.637000E-7	7.069334E-3
1.637500E-7	7.048779E-3
1.638000E-7	6.968271E-3
1.638500E-7	6.886049E-3
1.639000E-7	6.844938E-3
1.639500E-7	6.790124E-3
1.640000E-7	6.721606E-3
1.640500E-7	6.690773E-3
1.641000E-7	6.704477E-3
1.641500E-7	6.738736E-3
1.642000E-7	6.822670E-3
1.642500E-7	6.952854E-3
1.643000E-7	7.076187E-3
1.643500E-7	7.178964E-3
1.644000E-7	7.286879E-3
1.644500E-7	7.374240E-3
1.645000E-7	7.406786E-3
1.645500E-7	7.394795E-3
1.646000E-7	7.351971E-3
1.646500E-7	7.290305E-3
1.647000E-7	7.208083E-3
1.647500E-7	7.107019E-3
1.648000E-7	7.014520E-3
1.648500E-7	6.975122E-3
1.649000E-7	6.987113E-3
1.649500E-7	7.031650E-3
1.650000E-7	7.119010E-3
1.650500E-7	7.232065E-3
1.651000E-7	7.321138E-3
1.651500E-7	7.403360E-3
1.652000E-7	7.528405E-3
1.652500E-7	7.663728E-3
1.653000E-7	7.737384E-3
1.653500E-7	7.787060E-3
1.654000E-7	7.845300E-3
1.654500E-7	7.874420E-3
1.655000E-7	7.855577E-3
1.655500E-7	7.819605E-3
1.656000E-7	7.776781E-3
1.656500E-7	7.732244E-3
1.657000E-7	7.713402E-3
1.657500E-7	7.713402E-3
1.658000E-7	7.677430E-3
1.658500E-7	7.608912E-3
1.659000E-7	7.530116E-3
1.659500E-7	7.429052E-3
1.660000E-7	7.304007E-3
1.660500E-7	7.185814E-3
1.661000E-7	7.065908E-3
1.661500E-7	6.935724E-3
1.662000E-7	6.846651E-3
1.662500E-7	6.802115E-3
1.663000E-7	6.759291E-3
1.663500E-7	6.716468E-3
1.664000E-7	6.716468E-3
1.664500E-7	6.745588E-3
1.665000E-7	6.749014E-3
1.665500E-7	6.728459E-3
1.666000E-7	6.718181E-3
1.666500E-7	6.731885E-3
1.667000E-7	6.761005E-3
1.667500E-7	6.774708E-3
1.668000E-7	6.774708E-3
1.668500E-7	6.786699E-3
1.669000E-7	6.817532E-3
1.669500E-7	6.843226E-3
1.670000E-7	6.865494E-3
1.670500E-7	6.901466E-3
1.671000E-7	6.930586E-3
1.671500E-7	6.952854E-3
1.672000E-7	6.990539E-3
1.672500E-7	7.041928E-3
1.673000E-7	7.088177E-3
1.673500E-7	7.120723E-3
1.674000E-7	7.161834E-3
1.674500E-7	7.197806E-3
1.675000E-7	7.228639E-3
1.675500E-7	7.226926E-3
1.676000E-7	7.204658E-3
1.676500E-7	7.172112E-3
1.677000E-7	7.153270E-3
1.677500E-7	7.144705E-3
1.678000E-7	7.146418E-3
1.678500E-7	7.161834E-3
1.679000E-7	7.201232E-3
1.679500E-7	7.247482E-3
1.680000E-7	7.302296E-3
1.680500E-7	7.363962E-3
1.681000E-7	7.394795E-3
1.681500E-7	7.357110E-3
1.682000E-7	7.278314E-3
1.682500E-7	7.189241E-3
1.683000E-7	7.055631E-3
1.683500E-7	6.863781E-3
1.684000E-7	6.649663E-3
1.684500E-7	6.447535E-3
1.685000E-7	6.259111E-3
1.685500E-7	6.111798E-3
1.686000E-7	6.033002E-3
1.686500E-7	6.041567E-3
1.687000E-7	6.151195E-3
1.687500E-7	6.360175E-3
1.688000E-7	6.620543E-3
1.688500E-7	6.892901E-3
1.689000E-7	7.161834E-3
1.689500E-7	7.406785E-3
1.690000E-7	7.608913E-3
1.690500E-7	7.763079E-3
1.691000E-7	7.848726E-3
1.691500E-7	7.869281E-3
1.692000E-7	7.862430E-3
1.692500E-7	7.826458E-3
1.693000E-7	7.740811E-3
1.693500E-7	7.603775E-3
1.694000E-7	7.468452E-3
1.694500E-7	7.362250E-3
1.695000E-7	7.264612E-3
1.695500E-7	7.149844E-3
1.696000E-7	7.059058E-3
1.696500E-7	7.014521E-3
1.697000E-7	6.995678E-3
1.697500E-7	6.987114E-3
1.698000E-7	7.000817E-3
1.698500E-7	7.031650E-3
1.699000E-7	7.072761E-3
1.699500E-7	7.146418E-3
1.700000E-7	7.238917E-3
1.700500E-7	7.341694E-3
1.701000E-7	7.451322E-3
1.701500E-7	7.567803E-3
1.702000E-7	7.662015E-3
1.702500E-7	7.747662E-3
1.703000E-7	7.847013E-3
1.703500E-7	7.939512E-3
1.704000E-7	7.999465E-3
1.704500E-7	8.054280E-3
1.705000E-7	8.079974E-3
1.705500E-7	8.057706E-3
1.706000E-7	8.002891E-3
1.706500E-7	7.937800E-3
1.707000E-7	7.829884E-3
1.707500E-7	7.677432E-3
1.708000E-7	7.524980E-3
1.708500E-7	7.350259E-3
1.709000E-7	7.132715E-3
1.709500E-7	6.913457E-3
1.710000E-7	6.738736E-3
1.710500E-7	6.593136E-3
1.711000E-7	6.476655E-3
1.711500E-7	6.385869E-3
1.712000E-7	6.307073E-3
1.712500E-7	6.238555E-3
1.713000E-7	6.199157E-3
1.713500E-7	6.161473E-3
1.714000E-7	6.118649E-3
1.714500E-7	6.122075E-3
1.715000E-7	6.185454E-3
1.715500E-7	6.243694E-3
1.716000E-7	6.305361E-3
1.716500E-7	6.423554E-3
1.717000E-7	6.569155E-3
1.717500E-7	6.690774E-3
1.718000E-7	6.812393E-3
1.718500E-7	6.942577E-3
1.719000E-7	7.040215E-3
1.719500E-7	7.086464E-3
1.720000E-7	7.091603E-3
1.720500E-7	7.057344E-3
1.721000E-7	7.011094E-3
1.721500E-7	6.957993E-3
1.722000E-7	6.903179E-3
1.722500E-7	6.874059E-3
1.723000E-7	6.882624E-3
1.723500E-7	6.891188E-3
1.724000E-7	6.911744E-3
1.724500E-7	6.978549E-3
1.725000E-7	7.088177E-3
1.725500E-7	7.184102E-3
1.726000E-7	7.268037E-3
1.726500E-7	7.346832E-3
1.727000E-7	7.405072E-3
1.727500E-7	7.411924E-3
1.728000E-7	7.384517E-3
1.728500E-7	7.334841E-3
1.729000E-7	7.285166E-3
1.729500E-7	7.261185E-3
1.730000E-7	7.261185E-3
1.730500E-7	7.268037E-3
1.731000E-7	7.274889E-3
1.731500E-7	7.286879E-3
1.732000E-7	7.310861E-3
1.732500E-7	7.321138E-3
1.733000E-7	7.307435E-3
1.733500E-7	7.274889E-3
1.734000E-7	7.261185E-3
1.734500E-7	7.245768E-3
1.735000E-7	7.201232E-3
1.735500E-7	7.139566E-3
1.736000E-7	7.093316E-3
1.736500E-7	7.076186E-3
1.737000E-7	7.083038E-3
1.737500E-7	7.113871E-3
1.738000E-7	7.141278E-3
1.738500E-7	7.163546E-3
1.739000E-7	7.208083E-3
1.739500E-7	7.250907E-3
1.740000E-7	7.242342E-3
1.740500E-7	7.187528E-3
1.741000E-7	7.127575E-3
1.741500E-7	7.047067E-3
1.742000E-7	6.951142E-3
1.742500E-7	6.855217E-3
1.743000E-7	6.742162E-3
1.743500E-7	6.601701E-3
1.744000E-7	6.497211E-3
1.744500E-7	6.432119E-3
1.745000E-7	6.334481E-3
1.745500E-7	6.235130E-3
1.746000E-7	6.199158E-3
1.746500E-7	6.192306E-3
1.747000E-7	6.178602E-3
1.747500E-7	6.226565E-3
1.748000E-7	6.325916E-3
1.748500E-7	6.413276E-3
1.749000E-7	6.512627E-3
1.749500E-7	6.641098E-3
1.750000E-7	6.769569E-3
1.750500E-7	6.887763E-3
1.751000E-7	7.014521E-3
1.751500E-7	7.108733E-3
1.752000E-7	7.192667E-3
1.752500E-7	7.295444E-3
1.753000E-7	7.367388E-3
1.753500E-7	7.369101E-3
1.754000E-7	7.338268E-3
1.754500E-7	7.278315E-3
1.755000E-7	7.161835E-3
1.755500E-7	7.023086E-3
1.756000E-7	6.884337E-3
1.756500E-7	6.747301E-3
1.757000E-7	6.618830E-3
1.757500E-7	6.521192E-3
1.758000E-7	6.450962E-3
1.758500E-7	6.416703E-3
1.759000E-7	6.420128E-3
1.759500E-7	6.433832E-3
1.760000E-7	6.464665E-3
1.760500E-7	6.557164E-3
1.761000E-7	6.678783E-3
1.761500E-7	6.784986E-3
1.762000E-7	6.868920E-3
1.762500E-7	6.949428E-3
1.763000E-7	7.012808E-3
1.763500E-7	7.036789E-3
1.764000E-7	7.021372E-3
1.764500E-7	6.952855E-3
1.765000E-7	6.836374E-3
1.765500E-7	6.704477E-3
1.766000E-7	6.569155E-3
1.766500E-7	6.426980E-3
1.767000E-7	6.308787E-3
1.767500E-7	6.238556E-3
1.768000E-7	6.207723E-3
1.768500E-7	6.211149E-3
1.769000E-7	6.288231E-3
1.769500E-7	6.428693E-3
1.770000E-7	6.599988E-3
1.770500E-7	6.796976E-3
1.771000E-7	7.002530E-3
1.771500E-7	7.166973E-3
1.772000E-7	7.293731E-3
1.772500E-7	7.391369E-3
1.773000E-7	7.432479E-3
1.773500E-7	7.399933E-3
1.774000E-7	7.302295E-3
1.774500E-7	7.125862E-3
1.775000E-7	6.877485E-3
1.775500E-7	6.625682E-3
1.776000E-7	6.384156E-3
1.776500E-7	6.159761E-3
1.777000E-7	5.981614E-3
1.777500E-7	5.859995E-3
1.778000E-7	5.800042E-3
1.778500E-7	5.836014E-3
1.779000E-7	5.949068E-3
1.779500E-7	6.067262E-3
1.780000E-7	6.190594E-3
1.780500E-7	6.355037E-3
1.781000E-7	6.505776E-3
1.781500E-7	6.603414E-3
1.782000E-7	6.678783E-3
1.782500E-7	6.735310E-3
1.783000E-7	6.754153E-3
1.783500E-7	6.754153E-3
1.784000E-7	6.742162E-3
1.784500E-7	6.721607E-3
1.785000E-7	6.711329E-3
1.785500E-7	6.701051E-3
1.786000E-7	6.689061E-3
1.786500E-7	6.728458E-3
1.787000E-7	6.814106E-3
1.787500E-7	6.887763E-3
1.788000E-7	6.959706E-3
1.788500E-7	7.069335E-3
1.789000E-7	7.146418E-3
1.789500E-7	7.153269E-3
1.790000E-7	7.134427E-3
1.790500E-7	7.098455E-3
1.791000E-7	7.000817E-3
1.791500E-7	6.880911E-3
1.792000E-7	6.783273E-3
1.792500E-7	6.680496E-3
1.793000E-7	6.599987E-3
1.793500E-7	6.608552E-3
1.794000E-7	6.694199E-3
1.794500E-7	6.781560E-3
1.795000E-7	6.896327E-3
1.795500E-7	7.071048E-3
1.796000E-7	7.242342E-3
1.796500E-7	7.360536E-3
1.797000E-7	7.444470E-3
1.797500E-7	7.482155E-3
1.798000E-7	7.459887E-3
1.798500E-7	7.411924E-3
1.799000E-7	7.345119E-3
1.799500E-7	7.266324E-3
1.800000E-7	7.166973E-3
1.800500E-7	7.067622E-3
1.801000E-7	6.990539E-3
1.801500E-7	6.956280E-3
1.802000E-7	6.959706E-3
1.802500E-7	6.939151E-3
1.803000E-7	6.901466E-3
1.803500E-7	6.880910E-3
1.804000E-7	6.858642E-3
1.804500E-7	6.795263E-3
1.805000E-7	6.711328E-3
1.805500E-7	6.596561E-3
1.806000E-7	6.473229E-3
1.806500E-7	6.396146E-3
1.807000E-7	6.363600E-3
1.807500E-7	6.324203E-3
1.808000E-7	6.336194E-3
1.808500E-7	6.430406E-3
1.809000E-7	6.522905E-3
1.809500E-7	6.582858E-3
1.810000E-7	6.690774E-3
1.810500E-7	6.832949E-3
1.811000E-7	6.930586E-3
1.811500E-7	6.988826E-3
1.812000E-7	7.033363E-3
1.812500E-7	7.026511E-3
1.813000E-7	6.959706E-3
1.813500E-7	6.872345E-3
1.814000E-7	6.791837E-3
1.814500E-7	6.719893E-3
1.815000E-7	6.661652E-3
1.815500E-7	6.608551E-3
1.816000E-7	6.601699E-3
1.816500E-7	6.651375E-3
1.817000E-7	6.737022E-3
1.817500E-7	6.868919E-3
1.818000E-7	7.057343E-3
1.818500E-7	7.250906E-3
1.819000E-7	7.429053E-3
1.819500E-7	7.634607E-3
1.820000E-7	7.862429E-3
1.820500E-7	8.061131E-3
1.821000E-7	8.227287E-3
1.821500E-7	8.340341E-3
1.822000E-7	8.369461E-3
1.822500E-7	8.330064E-3
1.823000E-7	8.252981E-3
1.823500E-7	8.117658E-3
1.824000E-7	7.912104E-3
1.824500E-7	7.665440E-3
1.825000E-7	7.401646E-3
1.825500E-7	7.113871E-3
1.826000E-7	6.820957E-3
1.826500E-7	6.555450E-3
1.827000E-7	6.361887E-3
1.827500E-7	6.260823E-3
1.828000E-7	6.233416E-3
1.828500E-7	6.269388E-3
1.829000E-7	6.401285E-3
1.829500E-7	6.601699E-3
1.830000E-7	6.855216E-3
1.830500E-7	7.149842E-3
1.831000E-7	7.449608E-3
1.831500E-7	7.687708E-3
1.832000E-7	7.845299E-3
1.832500E-7	7.932659E-3
1.833000E-7	7.939511E-3
1.833500E-7	7.857290E-3
1.834000E-7	7.744236E-3
1.834500E-7	7.602061E-3
1.835000E-7	7.410211E-3
1.835500E-7	7.201232E-3
1.836000E-7	7.016234E-3
1.836500E-7	6.855217E-3
1.837000E-7	6.726745E-3
1.837500E-7	6.690773E-3
1.838000E-7	6.735310E-3
1.838500E-7	6.795263E-3
1.839000E-7	6.868920E-3
1.839500E-7	6.973409E-3
1.840000E-7	7.088177E-3
1.840500E-7	7.165259E-3
1.841000E-7	7.211509E-3
1.841500E-7	7.232064E-3
1.842000E-7	7.226926E-3
1.842500E-7	7.209796E-3
1.843000E-7	7.194380E-3
1.843500E-7	7.189241E-3
1.844000E-7	7.199519E-3
1.844500E-7	7.225213E-3
1.845000E-7	7.262898E-3
1.845500E-7	7.319425E-3
1.846000E-7	7.391369E-3
1.846500E-7	7.458174E-3
1.847000E-7	7.502710E-3
1.847500E-7	7.545534E-3
1.848000E-7	7.578080E-3
1.848500E-7	7.569515E-3
1.849000E-7	7.499285E-3
1.849500E-7	7.367388E-3
1.850000E-7	7.206371E-3
1.850500E-7	7.052205E-3
1.851000E-7	6.896327E-3
1.851500E-7	6.718181E-3
1.852000E-7	6.558876E-3
1.852500E-7	6.462951E-3
1.853000E-7	6.413276E-3
1.853500E-7	6.377304E-3
1.854000E-7	6.370452E-3
1.854500E-7	6.392720E-3
1.855000E-7	6.418415E-3
1.855500E-7	6.452674E-3
1.856000E-7	6.495497E-3
1.856500E-7	6.543460E-3
1.857000E-7	6.581145E-3
1.857500E-7	6.615404E-3
1.858000E-7	6.632534E-3
1.858500E-7	6.618830E-3
1.859000E-7	6.610265E-3
1.859500E-7	6.610265E-3
1.860000E-7	6.627394E-3
1.860500E-7	6.658227E-3
1.861000E-7	6.701051E-3
1.861500E-7	6.737023E-3
1.862000E-7	6.762717E-3
1.862500E-7	6.795263E-3
1.863000E-7	6.841513E-3
1.863500E-7	6.886049E-3
1.864000E-7	6.927160E-3
1.864500E-7	6.957993E-3
1.865000E-7	6.964845E-3
1.865500E-7	6.952855E-3
1.866000E-7	6.946003E-3
1.866500E-7	6.964845E-3
1.867000E-7	6.968271E-3
1.867500E-7	6.952855E-3
1.868000E-7	6.968271E-3
1.868500E-7	7.011095E-3
1.869000E-7	7.029937E-3
1.869500E-7	7.009382E-3
1.870000E-7	6.988827E-3
1.870500E-7	6.961420E-3
1.871000E-7	6.901467E-3
1.871500E-7	6.832949E-3
1.872000E-7	6.774708E-3
1.872500E-7	6.709616E-3
1.873000E-7	6.653089E-3
1.873500E-7	6.608552E-3
1.874000E-7	6.555450E-3
1.874500E-7	6.480080E-3
1.875000E-7	6.420127E-3
1.875500E-7	6.379016E-3
1.876000E-7	6.361887E-3
1.876500E-7	6.380729E-3
1.877000E-7	6.421840E-3
1.877500E-7	6.474942E-3
1.878000E-7	6.558877E-3
1.878500E-7	6.697626E-3
1.879000E-7	6.850078E-3
1.879500E-7	6.990540E-3
1.880000E-7	7.117298E-3
1.880500E-7	7.226926E-3
1.881000E-7	7.293731E-3
1.881500E-7	7.351971E-3
1.882000E-7	7.410211E-3
1.882500E-7	7.439331E-3
1.883000E-7	7.434193E-3
1.883500E-7	7.389656E-3
1.884000E-7	7.297157E-3
1.884500E-7	7.172112E-3
1.885000E-7	7.035077E-3
1.885500E-7	6.904893E-3
1.886000E-7	6.783274E-3
1.886500E-7	6.680497E-3
1.887000E-7	6.601701E-3
1.887500E-7	6.543461E-3
1.888000E-7	6.507489E-3
1.888500E-7	6.526331E-3
1.889000E-7	6.603413E-3
1.889500E-7	6.713042E-3
1.890000E-7	6.850077E-3
1.890500E-7	7.007668E-3
1.891000E-7	7.165259E-3
1.891500E-7	7.307434E-3
1.892000E-7	7.429053E-3
1.892500E-7	7.514701E-3
1.893000E-7	7.548960E-3
1.893500E-7	7.526692E-3
1.894000E-7	7.444471E-3
1.894500E-7	7.300583E-3
1.895000E-7	7.120724E-3
1.895500E-7	6.946004E-3
1.896000E-7	6.764431E-3
1.896500E-7	6.594850E-3
1.897000E-7	6.486934E-3
1.897500E-7	6.468092E-3
1.898000E-7	6.500637E-3
1.898500E-7	6.567442E-3
1.899000E-7	6.663367E-3
1.899500E-7	6.786699E-3
1.900000E-7	6.918596E-3
1.900500E-7	7.038502E-3
1.901000E-7	7.098455E-3
1.901500E-7	7.103593E-3
1.902000E-7	7.100167E-3
1.902500E-7	7.074473E-3
1.903000E-7	6.999103E-3
1.903500E-7	6.906604E-3
1.904000E-7	6.856929E-3
1.904500E-7	6.846651E-3
1.905000E-7	6.853503E-3
1.905500E-7	6.880910E-3
1.906000E-7	6.952853E-3
1.906500E-7	7.055630E-3
1.907000E-7	7.146416E-3
1.907500E-7	7.192666E-3
1.908000E-7	7.216647E-3
1.908500E-7	7.240629E-3
1.909000E-7	7.232064E-3
1.909500E-7	7.161834E-3
1.910000E-7	7.036789E-3
1.910500E-7	6.913457E-3
1.911000E-7	6.798690E-3
1.911500E-7	6.685636E-3
1.912000E-7	6.596563E-3
1.912500E-7	6.562304E-3
1.913000E-7	6.562303E-3
1.913500E-7	6.567442E-3
1.914000E-7	6.596562E-3
1.914500E-7	6.683922E-3
1.915000E-7	6.783273E-3
1.915500E-7	6.850078E-3
1.916000E-7	6.896327E-3
1.916500E-7	6.935725E-3
1.917000E-7	6.944290E-3
1.917500E-7	6.922021E-3
1.918000E-7	6.908318E-3
1.918500E-7	6.915170E-3
1.919000E-7	6.918596E-3
1.919500E-7	6.903180E-3
1.920000E-7	6.901467E-3
1.920500E-7	6.918596E-3
1.921000E-7	6.934013E-3
1.921500E-7	6.944290E-3
1.922000E-7	6.940864E-3
1.922500E-7	6.904892E-3
1.923000E-7	6.843226E-3
1.923500E-7	6.749013E-3
1.924000E-7	6.641098E-3
1.924500E-7	6.538321E-3
1.925000E-7	6.449248E-3
1.925500E-7	6.370452E-3
1.926000E-7	6.300221E-3
1.926500E-7	6.257398E-3
1.927000E-7	6.253972E-3
1.927500E-7	6.281379E-3
1.928000E-7	6.356749E-3
1.928500E-7	6.486933E-3
1.929000E-7	6.632533E-3
1.929500E-7	6.752439E-3
1.930000E-7	6.874059E-3
1.930500E-7	7.019659E-3
1.931000E-7	7.139565E-3
1.931500E-7	7.226925E-3
1.932000E-7	7.310860E-3
1.932500E-7	7.382804E-3
1.933000E-7	7.410211E-3
1.933500E-7	7.417063E-3
1.934000E-7	7.425627E-3
1.934500E-7	7.406785E-3
1.935000E-7	7.348545E-3
1.935500E-7	7.292018E-3
1.936000E-7	7.223500E-3
1.936500E-7	7.101880E-3
1.937000E-7	6.980261E-3
1.937500E-7	6.903178E-3
1.938000E-7	6.819243E-3
1.938500E-7	6.711328E-3
1.939000E-7	6.630819E-3
1.939500E-7	6.596560E-3
1.940000E-7	6.586282E-3
1.940500E-7	6.611976E-3
1.941000E-7	6.690772E-3
1.941500E-7	6.788410E-3
1.942000E-7	6.867206E-3
1.942500E-7	6.944289E-3
1.943000E-7	7.031649E-3
1.943500E-7	7.100167E-3
1.944000E-7	7.134426E-3
1.944500E-7	7.160121E-3
1.945000E-7	7.154982E-3
1.945500E-7	7.110445E-3
1.946000E-7	7.031650E-3
1.946500E-7	6.937438E-3
1.947000E-7	6.829522E-3
1.947500E-7	6.725032E-3
1.948000E-7	6.630820E-3
1.948500E-7	6.545173E-3
1.949000E-7	6.461239E-3
1.949500E-7	6.404711E-3
1.950000E-7	6.402998E-3
1.950500E-7	6.447535E-3
1.951000E-7	6.534895E-3
1.951500E-7	6.673644E-3
1.952000E-7	6.874058E-3
1.952500E-7	7.091602E-3
1.953000E-7	7.269749E-3
1.953500E-7	7.389655E-3
1.954000E-7	7.500996E-3
1.954500E-7	7.620902E-3
1.955000E-7	7.703124E-3
1.955500E-7	7.716827E-3
1.956000E-7	7.674004E-3
1.956500E-7	7.596921E-3
1.957000E-7	7.489006E-3
1.957500E-7	7.350257E-3
1.958000E-7	7.192666E-3
1.958500E-7	7.014520E-3
1.959000E-7	6.848365E-3
1.959500E-7	6.707903E-3
1.960000E-7	6.593136E-3
1.960500E-7	6.521192E-3
1.961000E-7	6.488646E-3
1.961500E-7	6.473230E-3
1.962000E-7	6.483507E-3
1.962500E-7	6.540034E-3
1.963000E-7	6.617117E-3
1.963500E-7	6.709616E-3
1.964000E-7	6.827809E-3
1.964500E-7	6.952854E-3
1.965000E-7	7.060770E-3
1.965500E-7	7.172111E-3
1.966000E-7	7.310860E-3
1.966500E-7	7.444470E-3
1.967000E-7	7.531831E-3
1.967500E-7	7.583219E-3
1.968000E-7	7.610627E-3
1.968500E-7	7.603775E-3
1.969000E-7	7.548961E-3
1.969500E-7	7.456462E-3
1.970000E-7	7.334842E-3
1.970500E-7	7.190955E-3
1.971000E-7	7.029938E-3
1.971500E-7	6.862069E-3
1.972000E-7	6.711329E-3
1.972500E-7	6.596562E-3
1.973000E-7	6.483507E-3
1.973500E-7	6.399572E-3
1.974000E-7	6.389294E-3
1.974500E-7	6.433831E-3
1.975000E-7	6.504062E-3
1.975500E-7	6.594848E-3
1.976000E-7	6.726745E-3
1.976500E-7	6.874058E-3
1.977000E-7	7.024798E-3
1.977500E-7	7.170398E-3
1.978000E-7	7.288592E-3
1.978500E-7	7.367387E-3
1.979000E-7	7.418776E-3
1.979500E-7	7.417063E-3
1.980000E-7	7.348545E-3
1.980500E-7	7.274888E-3
1.981000E-7	7.206370E-3
1.981500E-7	7.088177E-3
1.982000E-7	6.951141E-3
1.982500E-7	6.862068E-3
1.983000E-7	6.810679E-3
1.983500E-7	6.761004E-3
1.984000E-7	6.745587E-3
1.984500E-7	6.800402E-3
1.985000E-7	6.891188E-3
1.985500E-7	6.980261E-3
1.986000E-7	7.071048E-3
1.986500E-7	7.156695E-3
1.987000E-7	7.218362E-3
1.987500E-7	7.245769E-3
1.988000E-7	7.238917E-3
1.988500E-7	7.218362E-3
1.989000E-7	7.197807E-3
1.989500E-7	7.170399E-3
1.990000E-7	7.125863E-3
1.990500E-7	7.095030E-3
1.991000E-7	7.088178E-3
1.991500E-7	7.076187E-3
1.992000E-7	7.038502E-3
1.992500E-7	6.987114E-3
1.993000E-7	6.952855E-3
1.993500E-7	6.932300E-3
1.994000E-7	6.918596E-3
1.994500E-7	6.906605E-3
1.995000E-7	6.889476E-3
1.995500E-7	6.886050E-3
1.996000E-7	6.944290E-3
1.996500E-7	7.043641E-3
1.997000E-7	7.139566E-3
1.997500E-7	7.230352E-3
1.998000E-7	7.331416E-3
1.998500E-7	7.423915E-3
1.999000E-7	7.487294E-3
1.999500E-7	7.531830E-3
2.000000E-7	7.519840E-3
