Study Name	Tungsten_Kyocera
Sample Name	2024-02-05
Run Name	spot00
Operator	Angus+Samantha
Date	2/5/2024
Time	15:26
Sign	FIX
Grating Spacing	03.40um
Channel	3
Number Traces	10000
Files in Batch	1
Batch Number	36
dt	50.000001E-12
time stamp (ms)	4:03:56 PM
	
Time	Amplitude
0.000000E+0	5.950782E-3
5.000000E-11	6.015874E-3
1.000000E-10	6.098096E-3
1.500000E-10	6.190595E-3
2.000000E-10	6.284807E-3
2.500000E-10	6.358464E-3
3.000000E-10	6.413278E-3
3.500000E-10	6.459528E-3
4.000000E-10	6.466380E-3
4.500000E-10	6.433834E-3
5.000000E-10	6.382445E-3
5.500000E-10	6.324205E-3
6.000000E-10	6.277955E-3
6.500000E-10	6.260826E-3
7.000000E-10	6.262538E-3
7.500000E-10	6.286520E-3
8.000000E-10	6.329343E-3
8.500000E-10	6.353324E-3
9.000000E-10	6.368741E-3
9.500000E-10	6.414990E-3
1.000000E-9	6.504063E-3
1.050000E-9	6.562304E-3
1.100000E-9	6.593137E-3
1.150000E-9	6.641099E-3
1.200000E-9	6.680497E-3
1.250000E-9	6.665080E-3
1.300000E-9	6.656516E-3
1.350000E-9	6.661655E-3
1.400000E-9	6.627396E-3
1.450000E-9	6.569155E-3
1.500000E-9	6.538322E-3
1.550000E-9	6.505776E-3
1.600000E-9	6.452675E-3
1.650000E-9	6.423555E-3
1.700000E-9	6.408138E-3
1.750000E-9	6.368741E-3
1.800000E-9	6.344760E-3
1.850000E-9	6.375593E-3
1.900000E-9	6.413278E-3
1.950000E-9	6.428695E-3
2.000000E-9	6.449250E-3
2.050000E-9	6.483509E-3
2.100000E-9	6.509204E-3
2.150000E-9	6.528046E-3
2.200000E-9	6.546889E-3
2.250000E-9	6.536611E-3
2.300000E-9	6.497213E-3
2.350000E-9	6.440686E-3
2.400000E-9	6.367029E-3
2.450000E-9	6.312215E-3
2.500000E-9	6.315640E-3
2.550000E-9	6.351612E-3
2.600000E-9	6.394436E-3
2.650000E-9	6.433833E-3
2.700000E-9	6.504064E-3
2.750000E-9	6.608554E-3
2.800000E-9	6.723321E-3
2.850000E-9	6.798691E-3
2.900000E-9	6.827811E-3
2.950000E-9	6.796978E-3
3.000000E-9	6.713044E-3
3.050000E-9	6.582860E-3
3.100000E-9	6.426982E-3
3.150000E-9	6.243696E-3
3.200000E-9	6.058698E-3
3.250000E-9	5.907959E-3
3.300000E-9	5.801756E-3
3.350000E-9	5.731525E-3
3.400000E-9	5.704118E-3
3.450000E-9	5.743515E-3
3.500000E-9	5.822311E-3
3.550000E-9	5.921662E-3
3.600000E-9	6.044994E-3
3.650000E-9	6.170039E-3
3.700000E-9	6.269389E-3
3.750000E-9	6.344759E-3
3.800000E-9	6.401286E-3
3.850000E-9	6.420128E-3
3.900000E-9	6.402999E-3
3.950000E-9	6.389295E-3
4.000000E-9	6.387582E-3
4.050000E-9	6.370453E-3
4.100000E-9	6.355037E-3
4.150000E-9	6.349898E-3
4.200000E-9	6.348185E-3
4.250000E-9	6.341333E-3
4.300000E-9	6.324204E-3
4.350000E-9	6.298510E-3
4.400000E-9	6.267677E-3
4.450000E-9	6.243696E-3
4.500000E-9	6.212863E-3
4.550000E-9	6.176891E-3
4.600000E-9	6.144345E-3
4.650000E-9	6.123790E-3
4.700000E-9	6.123790E-3
4.750000E-9	6.168327E-3
4.800000E-9	6.238558E-3
4.850000E-9	6.307076E-3
4.900000E-9	6.399575E-3
4.950000E-9	6.538323E-3
5.000000E-9	6.680498E-3
5.050000E-9	6.814108E-3
5.100000E-9	6.935727E-3
5.150000E-9	7.011096E-3
5.200000E-9	7.000818E-3
5.250000E-9	6.934013E-3
5.300000E-9	6.822671E-3
5.350000E-9	6.658228E-3
5.400000E-9	6.450962E-3
5.450000E-9	6.238557E-3
5.500000E-9	6.074114E-3
5.550000E-9	5.966198E-3
5.600000E-9	5.909671E-3
5.650000E-9	5.913097E-3
5.700000E-9	6.009022E-3
5.750000E-9	6.199159E-3
5.800000E-9	6.425268E-3
5.850000E-9	6.653090E-3
5.900000E-9	6.899754E-3
5.950000E-9	7.139566E-3
6.000000E-9	7.334842E-3
6.050000E-9	7.461600E-3
6.100000E-9	7.523266E-3
6.150000E-9	7.514701E-3
6.200000E-9	7.444470E-3
6.250000E-9	7.321138E-3
6.300000E-9	7.172112E-3
6.350000E-9	6.985401E-3
6.400000E-9	6.778134E-3
6.450000E-9	6.598275E-3
6.500000E-9	6.481794E-3
6.550000E-9	6.397860E-3
6.600000E-9	6.329342E-3
6.650000E-9	6.327629E-3
6.700000E-9	6.413277E-3
6.750000E-9	6.507489E-3
6.800000E-9	6.564016E-3
6.850000E-9	6.623969E-3
6.900000E-9	6.709616E-3
6.950000E-9	6.793551E-3
7.000000E-9	6.870633E-3
7.050000E-9	6.956281E-3
7.100000E-9	7.048780E-3
7.150000E-9	7.136140E-3
7.200000E-9	7.230352E-3
7.250000E-9	7.334842E-3
7.300000E-9	7.408498E-3
7.350000E-9	7.430767E-3
7.400000E-9	7.398221E-3
7.450000E-9	7.297157E-3
7.500000E-9	7.125862E-3
7.550000E-9	6.903179E-3
7.600000E-9	6.634246E-3
7.650000E-9	6.343045E-3
7.700000E-9	6.039854E-3
7.750000E-9	5.752079E-3
7.800000E-9	5.536248E-3
7.850000E-9	5.431758E-3
7.900000E-9	5.424907E-3
7.950000E-9	5.527684E-3
8.000000E-9	5.762357E-3
8.050000E-9	6.075827E-3
8.100000E-9	6.421842E-3
8.150000E-9	6.802116E-3
8.200000E-9	7.170400E-3
8.250000E-9	7.451323E-3
8.300000E-9	7.636321E-3
8.350000E-9	7.747663E-3
8.400000E-9	7.754515E-3
8.450000E-9	7.650025E-3
8.500000E-9	7.468452E-3
8.550000E-9	7.218362E-3
8.600000E-9	6.918596E-3
8.650000E-9	6.627395E-3
8.700000E-9	6.372166E-3
8.750000E-9	6.170039E-3
8.800000E-9	6.065549E-3
8.850000E-9	6.079253E-3
8.900000E-9	6.149484E-3
8.950000E-9	6.257400E-3
9.000000E-9	6.416704E-3
9.050000E-9	6.587998E-3
9.100000E-9	6.747302E-3
9.150000E-9	6.894616E-3
9.200000E-9	7.009383E-3
9.250000E-9	7.077901E-3
9.300000E-9	7.127576E-3
9.350000E-9	7.139566E-3
9.400000E-9	7.095029E-3
9.450000E-9	7.019659E-3
9.500000E-9	6.956280E-3
9.550000E-9	6.887762E-3
9.600000E-9	6.820957E-3
9.650000E-9	6.810680E-3
9.700000E-9	6.865494E-3
9.750000E-9	6.947716E-3
9.800000E-9	7.031650E-3
9.850000E-9	7.119011E-3
9.900000E-9	7.213223E-3
9.950000E-9	7.312574E-3
1.000000E-8	7.382805E-3
1.005000E-8	7.381092E-3
1.010000E-8	7.329704E-3
1.015000E-8	7.264612E-3
1.020000E-8	7.153270E-3
1.025000E-8	6.999105E-3
1.030000E-8	6.848365E-3
1.035000E-8	6.706191E-3
1.040000E-8	6.574294E-3
1.045000E-8	6.495498E-3
1.050000E-8	6.483507E-3
1.055000E-8	6.524618E-3
1.060000E-8	6.608553E-3
1.065000E-8	6.702765E-3
1.070000E-8	6.779847E-3
1.075000E-8	6.846652E-3
1.080000E-8	6.908319E-3
1.085000E-8	6.928874E-3
1.090000E-8	6.896328E-3
1.095000E-8	6.824384E-3
1.100000E-8	6.697626E-3
1.105000E-8	6.498924E-3
1.110000E-8	6.322491E-3
1.115000E-8	6.207723E-3
1.120000E-8	6.115224E-3
1.125000E-8	6.038142E-3
1.130000E-8	6.038141E-3
1.135000E-8	6.111798E-3
1.140000E-8	6.219714E-3
1.145000E-8	6.343046E-3
1.150000E-8	6.505776E-3
1.155000E-8	6.714756E-3
1.160000E-8	6.934013E-3
1.165000E-8	7.144706E-3
1.170000E-8	7.408500E-3
1.175000E-8	7.785348E-3
1.180000E-8	8.249557E-3
1.185000E-8	8.813117E-3
1.190000E-8	9.619916E-3
1.195000E-8	1.073847E-2
1.200000E-8	1.219105E-2
1.205000E-8	1.410784E-2
1.210000E-8	1.658476E-2
1.215000E-8	1.961668E-2
1.220000E-8	2.320359E-2
1.225000E-8	2.739345E-2
1.230000E-8	3.208350E-2
1.235000E-8	3.711956E-2
1.240000E-8	4.239544E-2
1.245000E-8	4.773640E-2
1.250000E-8	5.288381E-2
1.255000E-8	5.765607E-2
1.260000E-8	6.192302E-2
1.265000E-8	6.548424E-2
1.270000E-8	6.821981E-2
1.275000E-8	7.012118E-2
1.280000E-8	7.116607E-2
1.285000E-8	7.136478E-2
1.290000E-8	7.080635E-2
1.295000E-8	6.959530E-2
1.300000E-8	6.783953E-2
1.305000E-8	6.566066E-2
1.310000E-8	6.319744E-2
1.315000E-8	6.053210E-2
1.320000E-8	5.776398E-2
1.325000E-8	5.499928E-2
1.330000E-8	5.228597E-2
1.335000E-8	4.967544E-2
1.340000E-8	4.730130E-2
1.345000E-8	4.527660E-2
1.350000E-8	4.363388E-2
1.355000E-8	4.238001E-2
1.360000E-8	4.154067E-2
1.365000E-8	4.114498E-2
1.370000E-8	4.118095E-2
1.375000E-8	4.160748E-2
1.380000E-8	4.235775E-2
1.385000E-8	4.336154E-2
1.390000E-8	4.454518E-2
1.395000E-8	4.582989E-2
1.400000E-8	4.709576E-2
1.405000E-8	4.825200E-2
1.410000E-8	4.922324E-2
1.415000E-8	4.994781E-2
1.420000E-8	5.038119E-2
1.425000E-8	5.045998E-2
1.430000E-8	5.017392E-2
1.435000E-8	4.955554E-2
1.440000E-8	4.862370E-2
1.445000E-8	4.737496E-2
1.450000E-8	4.585215E-2
1.455000E-8	4.414092E-2
1.460000E-8	4.227038E-2
1.465000E-8	4.027137E-2
1.470000E-8	3.827921E-2
1.475000E-8	3.642238E-2
1.480000E-8	3.476425E-2
1.485000E-8	3.333736E-2
1.490000E-8	3.224965E-2
1.495000E-8	3.157988E-2
1.500000E-8	3.132980E-2
1.505000E-8	3.146512E-2
1.510000E-8	3.197729E-2
1.515000E-8	3.279437E-2
1.520000E-8	3.384098E-2
1.525000E-8	3.505889E-2
1.530000E-8	3.637957E-2
1.535000E-8	3.769511E-2
1.540000E-8	3.890616E-2
1.545000E-8	3.996819E-2
1.550000E-8	4.081781E-2
1.555000E-8	4.137794E-2
1.560000E-8	4.160405E-2
1.565000E-8	4.149956E-2
1.570000E-8	4.107989E-2
1.575000E-8	4.033818E-2
1.580000E-8	3.926930E-2
1.585000E-8	3.789723E-2
1.590000E-8	3.629734E-2
1.595000E-8	3.456726E-2
1.600000E-8	3.275325E-2
1.605000E-8	3.094266E-2
1.610000E-8	2.925027E-2
1.615000E-8	2.774459E-2
1.620000E-8	2.646160E-2
1.625000E-8	2.549036E-2
1.630000E-8	2.491481E-2
1.635000E-8	2.471268E-2
1.640000E-8	2.486514E-2
1.645000E-8	2.536532E-2
1.650000E-8	2.618753E-2
1.655000E-8	2.727012E-2
1.660000E-8	2.857024E-2
1.665000E-8	2.999542E-2
1.670000E-8	3.143087E-2
1.675000E-8	3.281835E-2
1.680000E-8	3.410991E-2
1.685000E-8	3.519592E-2
1.690000E-8	3.598559E-2
1.695000E-8	3.643952E-2
1.700000E-8	3.650975E-2
1.705000E-8	3.613975E-2
1.710000E-8	3.536378E-2
1.715000E-8	3.422296E-2
1.720000E-8	3.270871E-2
1.725000E-8	3.090840E-2
1.730000E-8	2.899162E-2
1.735000E-8	2.704400E-2
1.740000E-8	2.512721E-2
1.745000E-8	2.337144E-2
1.750000E-8	2.191544E-2
1.755000E-8	2.081401E-2
1.760000E-8	2.008944E-2
1.765000E-8	1.977597E-2
1.770000E-8	1.988217E-2
1.775000E-8	2.038407E-2
1.780000E-8	2.123883E-2
1.785000E-8	2.235739E-2
1.790000E-8	2.364210E-2
1.795000E-8	2.505014E-2
1.800000E-8	2.653869E-2
1.805000E-8	2.798956E-2
1.810000E-8	2.928454E-2
1.815000E-8	3.038425E-2
1.820000E-8	3.125957E-2
1.825000E-8	3.181799E-2
1.830000E-8	3.200812E-2
1.835000E-8	3.187451E-2
1.840000E-8	3.140687E-2
1.845000E-8	3.054869E-2
1.850000E-8	2.937018E-2
1.855000E-8	2.797927E-2
1.860000E-8	2.639650E-2
1.865000E-8	2.467670E-2
1.870000E-8	2.293806E-2
1.875000E-8	2.126452E-2
1.880000E-8	1.970060E-2
1.885000E-8	1.835251E-2
1.890000E-8	1.731789E-2
1.895000E-8	1.665156E-2
1.900000E-8	1.638605E-2
1.905000E-8	1.652823E-2
1.910000E-8	1.705753E-2
1.915000E-8	1.793798E-2
1.920000E-8	1.915932E-2
1.925000E-8	2.063588E-2
1.930000E-8	2.223234E-2
1.935000E-8	2.383909E-2
1.940000E-8	2.536361E-2
1.945000E-8	2.670656E-2
1.950000E-8	2.779256E-2
1.955000E-8	2.856681E-2
1.960000E-8	2.899334E-2
1.965000E-8	2.905158E-2
1.970000E-8	2.870213E-2
1.975000E-8	2.796728E-2
1.980000E-8	2.693608E-2
1.985000E-8	2.563767E-2
1.990000E-8	2.408916E-2
1.995000E-8	2.239677E-2
2.000000E-8	2.070267E-2
2.005000E-8	1.906338E-2
2.010000E-8	1.754228E-2
2.015000E-8	1.623359E-2
2.020000E-8	1.519555E-2
2.025000E-8	1.446583E-2
2.030000E-8	1.408899E-2
2.035000E-8	1.407871E-2
2.040000E-8	1.441788E-2
2.045000E-8	1.509963E-2
2.050000E-8	1.607087E-2
2.055000E-8	1.724253E-2
2.060000E-8	1.855464E-2
2.065000E-8	1.997639E-2
2.070000E-8	2.139642E-2
2.075000E-8	2.271882E-2
2.080000E-8	2.391959E-2
2.085000E-8	2.496106E-2
2.090000E-8	2.574902E-2
2.095000E-8	2.622008E-2
2.100000E-8	2.636568E-2
2.105000E-8	2.616012E-2
2.110000E-8	2.554860E-2
2.115000E-8	2.456537E-2
2.120000E-8	2.327723E-2
2.125000E-8	2.174414E-2
2.130000E-8	2.003119E-2
2.135000E-8	1.823603E-2
2.140000E-8	1.649053E-2
2.145000E-8	1.489921E-2
2.150000E-8	1.353570E-2
2.155000E-8	1.248738E-2
2.160000E-8	1.183304E-2
2.165000E-8	1.158637E-2
2.170000E-8	1.172512E-2
2.175000E-8	1.222530E-2
2.180000E-8	1.305095E-2
2.185000E-8	1.410270E-2
2.190000E-8	1.532060E-2
2.195000E-8	1.665841E-2
2.200000E-8	1.805618E-2
2.205000E-8	1.943510E-2
2.210000E-8	2.074379E-2
2.215000E-8	2.190688E-2
2.220000E-8	2.281132E-2
2.225000E-8	2.340571E-2
2.230000E-8	2.369348E-2
2.235000E-8	2.364038E-2
2.240000E-8	2.320700E-2
2.245000E-8	2.244474E-2
2.250000E-8	2.141697E-2
2.255000E-8	2.014425E-2
2.260000E-8	1.865570E-2
2.265000E-8	1.702840E-2
2.270000E-8	1.535142E-2
2.275000E-8	1.373098E-2
2.280000E-8	1.227155E-2
2.285000E-8	1.105022E-2
2.290000E-8	1.014236E-2
2.295000E-8	9.602779E-3
2.300000E-8	9.431486E-3
2.305000E-8	9.607921E-3
2.310000E-8	1.016806E-2
2.315000E-8	1.111189E-2
2.320000E-8	1.234693E-2
2.325000E-8	1.377895E-2
2.330000E-8	1.534972E-2
2.335000E-8	1.695818E-2
2.340000E-8	1.851182E-2
2.345000E-8	1.993014E-2
2.350000E-8	2.111379E-2
2.355000E-8	2.199767E-2
2.360000E-8	2.254581E-2
2.365000E-8	2.272738E-2
2.370000E-8	2.253381E-2
2.375000E-8	2.198224E-2
2.380000E-8	2.110521E-2
2.385000E-8	1.994383E-2
2.390000E-8	1.858547E-2
2.395000E-8	1.711062E-2
2.400000E-8	1.556383E-2
2.405000E-8	1.402560E-2
2.410000E-8	1.258330E-2
2.415000E-8	1.129345E-2
2.420000E-8	1.022629E-2
2.425000E-8	9.481159E-3
2.430000E-8	9.078618E-3
2.435000E-8	8.992972E-3
2.440000E-8	9.229360E-3
2.445000E-8	9.808337E-3
2.450000E-8	1.071791E-2
2.455000E-8	1.188614E-2
2.460000E-8	1.323081E-2
2.465000E-8	1.468510E-2
2.470000E-8	1.616851E-2
2.475000E-8	1.757826E-2
2.480000E-8	1.881844E-2
2.485000E-8	1.983935E-2
2.490000E-8	2.056735E-2
2.495000E-8	2.091851E-2
2.500000E-8	2.088596E-2
2.505000E-8	2.052967E-2
2.510000E-8	1.986847E-2
2.515000E-8	1.892635E-2
2.520000E-8	1.777696E-2
2.525000E-8	1.646141E-2
2.530000E-8	1.503624E-2
2.535000E-8	1.358024E-2
2.540000E-8	1.216534E-2
2.545000E-8	1.084124E-2
2.550000E-8	9.710692E-3
2.555000E-8	8.823386E-3
2.560000E-8	8.174180E-3
2.565000E-8	7.816176E-3
2.570000E-8	7.843584E-3
2.575000E-8	8.210156E-3
2.580000E-8	8.835382E-3
2.585000E-8	9.715838E-3
2.590000E-8	1.084296E-2
2.595000E-8	1.212253E-2
2.600000E-8	1.346205E-2
2.605000E-8	1.482899E-2
2.610000E-8	1.614967E-2
2.615000E-8	1.729905E-2
2.620000E-8	1.821719E-2
2.625000E-8	1.888181E-2
2.630000E-8	1.923982E-2
2.635000E-8	1.926551E-2
2.640000E-8	1.896232E-2
2.645000E-8	1.833538E-2
2.650000E-8	1.739326E-2
2.655000E-8	1.621989E-2
2.660000E-8	1.486152E-2
2.665000E-8	1.338325E-2
2.670000E-8	1.191183E-2
2.675000E-8	1.055004E-2
2.680000E-8	9.308150E-3
2.685000E-8	8.227282E-3
2.690000E-8	7.425623E-3
2.695000E-8	6.956277E-3
2.700000E-8	6.802113E-3
2.705000E-8	6.976834E-3
2.710000E-8	7.477016E-3
2.715000E-8	8.234139E-3
2.720000E-8	9.212232E-3
2.725000E-8	1.040958E-2
2.730000E-8	1.172341E-2
2.735000E-8	1.306122E-2
2.740000E-8	1.438362E-2
2.745000E-8	1.560495E-2
2.750000E-8	1.660188E-2
2.755000E-8	1.733845E-2
2.760000E-8	1.783520E-2
2.765000E-8	1.804589E-2
2.770000E-8	1.790886E-2
2.775000E-8	1.744293E-2
2.780000E-8	1.669609E-2
2.785000E-8	1.571114E-2
2.790000E-8	1.454634E-2
2.795000E-8	1.324964E-2
2.800000E-8	1.185701E-2
2.805000E-8	1.046096E-2
2.810000E-8	9.165975E-3
2.815000E-8	8.043996E-3
2.820000E-8	7.144700E-3
2.825000E-8	6.517762E-3
2.830000E-8	6.171748E-3
2.835000E-8	6.092953E-3
2.840000E-8	6.307072E-3
2.845000E-8	6.796976E-3
2.850000E-8	7.521553E-3
2.855000E-8	8.456823E-3
2.860000E-8	9.570238E-3
2.865000E-8	1.079671E-2
2.870000E-8	1.206771E-2
2.875000E-8	1.334386E-2
2.880000E-8	1.454806E-2
2.885000E-8	1.559467E-2
2.890000E-8	1.645286E-2
2.895000E-8	1.710720E-2
2.900000E-8	1.748576E-2
2.905000E-8	1.752687E-2
2.910000E-8	1.726136E-2
2.915000E-8	1.673891E-2
2.920000E-8	1.595952E-2
2.925000E-8	1.493518E-2
2.930000E-8	1.376524E-2
2.935000E-8	1.251650E-2
2.940000E-8	1.122151E-2
2.945000E-8	9.947079E-3
2.950000E-8	8.792554E-3
2.955000E-8	7.805897E-3
2.960000E-8	7.011091E-3
2.965000E-8	6.492069E-3
2.970000E-8	6.301933E-3
2.975000E-8	6.401285E-3
2.980000E-8	6.766143E-3
2.985000E-8	7.420489E-3
2.990000E-8	8.324926E-3
2.995000E-8	9.404083E-3
3.000000E-8	1.061171E-2
3.005000E-8	1.186045E-2
3.010000E-8	1.303724E-2
3.015000E-8	1.407186E-2
3.020000E-8	1.494546E-2
3.025000E-8	1.560495E-2
3.030000E-8	1.598693E-2
3.035000E-8	1.606573E-2
3.040000E-8	1.584133E-2
3.045000E-8	1.532059E-2
3.050000E-8	1.454463E-2
3.055000E-8	1.357339E-2
3.060000E-8	1.248909E-2
3.065000E-8	1.134827E-2
3.070000E-8	1.016976E-2
3.075000E-8	9.015235E-3
3.080000E-8	7.977190E-3
3.085000E-8	7.100162E-3
3.090000E-8	6.399567E-3
3.095000E-8	5.901101E-3
3.100000E-8	5.668141E-3
3.105000E-8	5.710965E-3
3.110000E-8	6.012445E-3
3.115000E-8	6.543459E-3
3.120000E-8	7.276601E-3
3.125000E-8	8.199879E-3
3.130000E-8	9.255055E-3
3.135000E-8	1.034963E-2
3.140000E-8	1.140309E-2
3.145000E-8	1.241373E-2
3.150000E-8	1.333529E-2
3.155000E-8	1.409070E-2
3.160000E-8	1.463199E-2
3.165000E-8	1.492662E-2
3.170000E-8	1.494889E-2
3.175000E-8	1.471421E-2
3.180000E-8	1.423630E-2
3.185000E-8	1.352371E-2
3.190000E-8	1.262613E-2
3.195000E-8	1.163604E-2
3.200000E-8	1.057744E-2
3.205000E-8	9.455463E-3
3.210000E-8	8.354039E-3
3.215000E-8	7.367382E-3
3.220000E-8	6.526326E-3
3.225000E-8	5.868555E-3
3.230000E-8	5.435180E-3
3.235000E-8	5.239905E-3
3.240000E-8	5.286156E-3
3.245000E-8	5.577357E-3
3.250000E-8	6.094668E-3
3.255000E-8	6.800403E-3
3.260000E-8	7.675719E-3
3.265000E-8	8.684644E-3
3.270000E-8	9.753523E-3
3.275000E-8	1.083611E-2
3.280000E-8	1.189984E-2
3.285000E-8	1.286595E-2
3.290000E-8	1.365047E-2
3.295000E-8	1.421746E-2
3.300000E-8	1.454806E-2
3.305000E-8	1.461315E-2
3.310000E-8	1.441616E-2
3.315000E-8	1.395366E-2
3.320000E-8	1.323422E-2
3.325000E-8	1.230923E-2
3.330000E-8	1.126434E-2
3.335000E-8	1.014407E-2
3.340000E-8	8.987829E-3
3.345000E-8	7.870989E-3
3.350000E-8	6.853499E-3
3.355000E-8	6.007304E-3
3.360000E-8	5.392357E-3
3.365000E-8	5.013796E-3
3.370000E-8	4.869909E-3
3.375000E-8	4.986390E-3
3.380000E-8	5.344397E-3
3.385000E-8	5.911382E-3
3.390000E-8	6.680495E-3
3.395000E-8	7.615764E-3
3.400000E-8	8.605847E-3
3.405000E-8	9.621624E-3
3.410000E-8	1.066481E-2
3.415000E-8	1.163262E-2
3.420000E-8	1.242743E-2
3.425000E-8	1.308349E-2
3.430000E-8	1.357339E-2
3.435000E-8	1.379779E-2
3.440000E-8	1.374468E-2
3.445000E-8	1.346376E-2
3.450000E-8	1.293960E-2
3.455000E-8	1.219447E-2
3.460000E-8	1.132429E-2
3.465000E-8	1.035990E-2
3.470000E-8	9.291021E-3
3.475000E-8	8.213578E-3
3.480000E-8	7.242337E-3
3.485000E-8	6.432114E-3
3.490000E-8	5.806888E-3
3.495000E-8	5.423189E-3
3.500000E-8	5.301570E-3
3.505000E-8	5.450597E-3
3.510000E-8	5.861705E-3
3.515000E-8	6.483505E-3
3.520000E-8	7.247480E-3
3.525000E-8	8.088537E-3
3.530000E-8	8.972418E-3
3.535000E-8	9.825465E-3
3.540000E-8	1.059629E-2
3.545000E-8	1.125920E-2
3.550000E-8	1.181420E-2
3.555000E-8	1.222702E-2
3.560000E-8	1.246511E-2
3.565000E-8	1.255247E-2
3.570000E-8	1.253021E-2
3.575000E-8	1.237604E-2
3.580000E-8	1.204030E-2
3.585000E-8	1.154869E-2
3.590000E-8	1.095772E-2
3.595000E-8	1.025712E-2
3.600000E-8	9.407501E-3
3.605000E-8	8.477371E-3
3.610000E-8	7.542103E-3
3.615000E-8	6.632528E-3
3.620000E-8	5.791472E-3
3.625000E-8	5.108007E-3
3.630000E-8	4.616392E-3
3.635000E-8	4.342321E-3
3.640000E-8	4.340609E-3
3.645000E-8	4.654079E-3
3.650000E-8	5.226203E-3
3.655000E-8	5.998743E-3
3.660000E-8	6.969984E-3
3.665000E-8	8.067983E-3
3.670000E-8	9.191676E-3
3.675000E-8	1.029653E-2
3.680000E-8	1.132772E-2
3.685000E-8	1.214480E-2
3.690000E-8	1.269636E-2
3.695000E-8	1.300641E-2
3.700000E-8	1.307492E-2
3.705000E-8	1.287793E-2
3.710000E-8	1.241201E-2
3.715000E-8	1.173711E-2
3.720000E-8	1.089605E-2
3.725000E-8	9.940228E-3
3.730000E-8	8.953571E-3
3.735000E-8	7.994320E-3
3.740000E-8	7.103588E-3
3.745000E-8	6.336188E-3
3.750000E-8	5.743509E-3
3.755000E-8	5.344392E-3
3.760000E-8	5.150830E-3
3.765000E-8	5.171386E-3
3.770000E-8	5.390643E-3
3.775000E-8	5.770918E-3
3.780000E-8	6.307071E-3
3.785000E-8	6.990537E-3
3.790000E-8	7.759651E-3
3.795000E-8	8.566449E-3
3.800000E-8	9.404080E-3
3.805000E-8	1.022458E-2
3.810000E-8	1.094402E-2
3.815000E-8	1.155554E-2
3.820000E-8	1.207114E-2
3.825000E-8	1.244799E-2
3.830000E-8	1.265696E-2
3.835000E-8	1.270321E-2
3.840000E-8	1.256446E-2
3.845000E-8	1.223386E-2
3.850000E-8	1.175081E-2
3.855000E-8	1.113929E-2
3.860000E-8	1.039758E-2
3.865000E-8	9.589073E-3
3.870000E-8	8.751442E-3
3.875000E-8	7.900108E-3
3.880000E-8	7.091597E-3
3.885000E-8	6.396141E-3
3.890000E-8	5.824017E-3
3.895000E-8	5.395781E-3
3.900000E-8	5.164534E-3
3.905000E-8	5.126850E-3
3.910000E-8	5.251896E-3
3.915000E-8	5.546523E-3
3.920000E-8	5.997029E-3
3.925000E-8	6.570866E-3
3.930000E-8	7.249194E-3
3.935000E-8	7.989187E-3
3.940000E-8	8.730893E-3
3.945000E-8	9.467460E-3
3.950000E-8	1.019032E-2
3.955000E-8	1.084124E-2
3.960000E-8	1.138082E-2
3.965000E-8	1.180392E-2
3.970000E-8	1.203516E-2
3.975000E-8	1.204544E-2
3.980000E-8	1.189470E-2
3.985000E-8	1.158123E-2
3.990000E-8	1.107934E-2
3.995000E-8	1.045069E-2
4.000000E-8	9.767221E-3
4.005000E-8	9.015237E-3
4.010000E-8	8.222143E-3
4.015000E-8	7.494141E-3
4.020000E-8	6.850074E-3
4.025000E-8	6.295080E-3
4.030000E-8	5.904528E-3
4.035000E-8	5.717817E-3
4.040000E-8	5.693837E-3
4.045000E-8	5.827447E-3
4.050000E-8	6.140916E-3
4.055000E-8	6.608551E-3
4.060000E-8	7.173823E-3
4.065000E-8	7.800762E-3
4.070000E-8	8.497931E-3
4.075000E-8	9.249914E-3
4.080000E-8	9.993333E-3
4.085000E-8	1.066823E-2
4.090000E-8	1.125064E-2
4.095000E-8	1.172341E-2
4.100000E-8	1.202146E-2
4.105000E-8	1.209854E-2
4.110000E-8	1.196665E-2
4.115000E-8	1.164461E-2
4.120000E-8	1.115128E-2
4.125000E-8	1.050550E-2
4.130000E-8	9.758656E-3
4.135000E-8	8.960423E-3
4.140000E-8	8.155339E-3
4.145000E-8	7.377661E-3
4.150000E-8	6.690770E-3
4.155000E-8	6.130637E-3
4.160000E-8	5.722956E-3
4.165000E-8	5.489995E-3
4.170000E-8	5.435181E-3
4.175000E-8	5.572217E-3
4.180000E-8	5.894252E-3
4.185000E-8	6.360173E-3
4.190000E-8	6.910029E-3
4.195000E-8	7.504422E-3
4.200000E-8	8.124509E-3
4.205000E-8	8.761725E-3
4.210000E-8	9.378385E-3
4.215000E-8	9.905973E-3
4.220000E-8	1.030338E-2
4.225000E-8	1.059286E-2
4.230000E-8	1.078129E-2
4.235000E-8	1.080869E-2
4.240000E-8	1.068879E-2
4.245000E-8	1.046610E-2
4.250000E-8	1.012694E-2
4.255000E-8	9.659306E-3
4.260000E-8	9.100885E-3
4.265000E-8	8.491076E-3
4.270000E-8	7.843582E-3
4.275000E-8	7.211504E-3
4.280000E-8	6.625677E-3
4.285000E-8	6.115219E-3
4.290000E-8	5.726381E-3
4.295000E-8	5.491707E-3
4.300000E-8	5.404348E-3
4.305000E-8	5.462588E-3
4.310000E-8	5.693837E-3
4.315000E-8	6.068972E-3
4.320000E-8	6.562301E-3
4.325000E-8	7.154981E-3
4.330000E-8	7.812753E-3
4.335000E-8	8.458534E-3
4.340000E-8	9.044362E-3
4.345000E-8	9.559959E-3
4.350000E-8	9.996760E-3
4.355000E-8	1.032565E-2
4.360000E-8	1.050550E-2
4.365000E-8	1.053805E-2
4.370000E-8	1.045583E-2
4.375000E-8	1.027768E-2
4.380000E-8	1.001217E-2
4.385000E-8	9.676436E-3
4.390000E-8	9.291023E-3
4.395000E-8	8.831953E-3
4.400000E-8	8.319781E-3
4.405000E-8	7.795620E-3
4.410000E-8	7.278310E-3
4.415000E-8	6.764426E-3
4.420000E-8	6.286514E-3
4.425000E-8	5.899388E-3
4.430000E-8	5.603049E-3
4.435000E-8	5.395783E-3
4.440000E-8	5.316988E-3
4.445000E-8	5.383793E-3
4.450000E-8	5.592773E-3
4.455000E-8	5.935362E-3
4.460000E-8	6.404710E-3
4.465000E-8	6.993964E-3
4.470000E-8	7.677430E-3
4.475000E-8	8.386589E-3
4.480000E-8	9.056351E-3
4.485000E-8	9.669586E-3
4.490000E-8	1.019032E-2
4.495000E-8	1.056717E-2
4.500000E-8	1.076416E-2
4.505000E-8	1.080013E-2
4.510000E-8	1.065624E-2
4.515000E-8	1.029995E-2
4.520000E-8	9.780926E-3
4.525000E-8	9.155700E-3
4.530000E-8	8.473947E-3
4.535000E-8	7.780203E-3
4.540000E-8	7.132709E-3
4.545000E-8	6.562298E-3
4.550000E-8	6.082673E-3
4.555000E-8	5.709251E-3
4.560000E-8	5.467726E-3
4.565000E-8	5.387217E-3
4.570000E-8	5.479717E-3
4.575000E-8	5.709252E-3
4.580000E-8	6.038139E-3
4.585000E-8	6.457811E-3
4.590000E-8	6.940862E-3
4.595000E-8	7.463311E-3
4.600000E-8	8.002889E-3
4.605000E-8	8.544180E-3
4.610000E-8	9.040935E-3
4.615000E-8	9.484588E-3
4.620000E-8	9.871713E-3
4.625000E-8	1.017319E-2
4.630000E-8	1.036675E-2
4.635000E-8	1.045411E-2
4.640000E-8	1.043356E-2
4.645000E-8	1.028796E-2
4.650000E-8	1.003444E-2
4.655000E-8	9.708982E-3
4.660000E-8	9.337272E-3
4.665000E-8	8.922739E-3
4.670000E-8	8.484225E-3
4.675000E-8	8.043998E-3
4.680000E-8	7.641456E-3
4.685000E-8	7.290302E-3
4.690000E-8	6.995675E-3
4.695000E-8	6.769566E-3
4.700000E-8	6.646234E-3
4.705000E-8	6.632531E-3
4.710000E-8	6.701049E-3
4.715000E-8	6.834659E-3
4.720000E-8	7.033361E-3
4.725000E-8	7.288590E-3
4.730000E-8	7.583217E-3
4.735000E-8	7.910389E-3
4.740000E-8	8.239275E-3
4.745000E-8	8.557883E-3
4.750000E-8	8.888481E-3
4.755000E-8	9.227645E-3
4.760000E-8	9.505142E-3
4.765000E-8	9.690140E-3
4.770000E-8	9.830601E-3
4.775000E-8	9.907684E-3
4.780000E-8	9.883702E-3
4.785000E-8	9.765509E-3
4.790000E-8	9.571946E-3
4.795000E-8	9.287597E-3
4.800000E-8	8.924452E-3
4.805000E-8	8.520197E-3
4.810000E-8	8.062840E-3
4.815000E-8	7.576363E-3
4.820000E-8	7.161830E-3
4.825000E-8	6.860352E-3
4.830000E-8	6.656511E-3
4.835000E-8	6.576003E-3
4.840000E-8	6.625679E-3
4.845000E-8	6.767854E-3
4.850000E-8	6.980260E-3
4.855000E-8	7.285165E-3
4.860000E-8	7.653449E-3
4.865000E-8	8.037149E-3
4.870000E-8	8.432839E-3
4.875000E-8	8.797697E-3
4.880000E-8	9.111166E-3
4.885000E-8	9.390376E-3
4.890000E-8	9.647317E-3
4.895000E-8	9.828889E-3
4.900000E-8	9.921388E-3
4.905000E-8	9.967637E-3
4.910000E-8	9.957359E-3
4.915000E-8	9.875138E-3
4.920000E-8	9.756944E-3
4.925000E-8	9.631899E-3
4.930000E-8	9.465743E-3
4.935000E-8	9.222505E-3
4.940000E-8	8.921027E-3
4.945000E-8	8.602419E-3
4.950000E-8	8.280385E-3
4.955000E-8	7.963490E-3
4.960000E-8	7.655160E-3
4.965000E-8	7.382801E-3
4.970000E-8	7.178961E-3
4.975000E-8	7.055629E-3
4.980000E-8	7.011092E-3
4.985000E-8	7.060768E-3
4.990000E-8	7.211507E-3
4.995000E-8	7.430764E-3
5.000000E-8	7.708262E-3
5.005000E-8	8.059416E-3
5.010000E-8	8.456820E-3
5.015000E-8	8.861075E-3
5.020000E-8	9.256766E-3
5.025000E-8	9.616484E-3
5.030000E-8	9.902547E-3
5.035000E-8	1.006699E-2
5.040000E-8	1.009268E-2
5.045000E-8	9.993332E-3
5.050000E-8	9.796343E-3
5.055000E-8	9.494864E-3
5.060000E-8	9.106025E-3
5.065000E-8	8.648668E-3
5.070000E-8	8.139923E-3
5.075000E-8	7.612335E-3
5.080000E-8	7.100164E-3
5.085000E-8	6.642807E-3
5.090000E-8	6.265959E-3
5.095000E-8	5.976471E-3
5.100000E-8	5.784622E-3
5.105000E-8	5.721243E-3
5.110000E-8	5.805177E-3
5.115000E-8	6.010731E-3
5.120000E-8	6.312210E-3
5.125000E-8	6.685633E-3
5.130000E-8	7.086462E-3
5.135000E-8	7.487292E-3
5.140000E-8	7.884695E-3
5.145000E-8	8.256405E-3
5.150000E-8	8.575013E-3
5.155000E-8	8.852510E-3
5.160000E-8	9.111165E-3
5.165000E-8	9.303015E-3
5.170000E-8	9.397227E-3
5.175000E-8	9.409217E-3
5.180000E-8	9.371532E-3
5.185000E-8	9.301302E-3
5.190000E-8	9.201951E-3
5.195000E-8	9.061489E-3
5.200000E-8	8.857648E-3
5.205000E-8	8.612697E-3
5.210000E-8	8.345477E-3
5.215000E-8	8.033721E-3
5.220000E-8	7.679141E-3
5.225000E-8	7.333126E-3
5.230000E-8	7.035073E-3
5.235000E-8	6.779844E-3
5.240000E-8	6.558874E-3
5.245000E-8	6.430403E-3
5.250000E-8	6.437255E-3
5.255000E-8	6.574292E-3
5.260000E-8	6.790123E-3
5.265000E-8	7.077898E-3
5.270000E-8	7.435904E-3
5.275000E-8	7.840160E-3
5.280000E-8	8.276961E-3
5.285000E-8	8.708623E-3
5.290000E-8	9.071767E-3
5.295000E-8	9.345838E-3
5.300000E-8	9.551391E-3
5.305000E-8	9.637038E-3
5.310000E-8	9.568520E-3
5.315000E-8	9.409215E-3
5.320000E-8	9.201948E-3
5.325000E-8	8.919312E-3
5.330000E-8	8.585288E-3
5.335000E-8	8.261541E-3
5.340000E-8	7.960062E-3
5.345000E-8	7.675713E-3
5.350000E-8	7.434188E-3
5.355000E-8	7.249190E-3
5.360000E-8	7.120720E-3
5.365000E-8	7.057341E-3
5.370000E-8	7.047063E-3
5.375000E-8	7.052203E-3
5.380000E-8	7.101878E-3
5.385000E-8	7.214933E-3
5.390000E-8	7.381089E-3
5.395000E-8	7.566087E-3
5.400000E-8	7.787057E-3
5.405000E-8	8.021731E-3
5.410000E-8	8.240988E-3
5.415000E-8	8.473949E-3
5.420000E-8	8.713761E-3
5.425000E-8	8.929593E-3
5.430000E-8	9.114591E-3
5.435000E-8	9.280746E-3
5.440000E-8	9.414356E-3
5.445000E-8	9.460605E-3
5.450000E-8	9.429772E-3
5.455000E-8	9.323569E-3
5.460000E-8	9.128293E-3
5.465000E-8	8.859360E-3
5.470000E-8	8.547604E-3
5.475000E-8	8.199876E-3
5.480000E-8	7.829879E-3
5.485000E-8	7.470161E-3
5.490000E-8	7.166969E-3
5.495000E-8	6.935722E-3
5.500000E-8	6.766140E-3
5.505000E-8	6.671929E-3
5.510000E-8	6.687346E-3
5.515000E-8	6.805539E-3
5.520000E-8	6.999102E-3
5.525000E-8	7.256045E-3
5.530000E-8	7.590069E-3
5.535000E-8	7.973769E-3
5.540000E-8	8.355756E-3
5.545000E-8	8.741169E-3
5.550000E-8	9.141999E-3
5.555000E-8	9.479449E-3
5.560000E-8	9.693567E-3
5.565000E-8	9.813473E-3
5.570000E-8	9.876852E-3
5.575000E-8	9.844306E-3
5.580000E-8	9.703845E-3
5.585000E-8	9.462319E-3
5.590000E-8	9.141998E-3
5.595000E-8	8.778853E-3
5.600000E-8	8.415709E-3
5.605000E-8	8.037148E-3
5.610000E-8	7.641457E-3
5.615000E-8	7.305719E-3
5.620000E-8	7.060768E-3
5.625000E-8	6.886047E-3
5.630000E-8	6.788409E-3
5.635000E-8	6.800399E-3
5.640000E-8	6.898037E-3
5.645000E-8	7.047063E-3
5.650000E-8	7.250904E-3
5.655000E-8	7.499282E-3
5.660000E-8	7.749372E-3
5.665000E-8	7.982333E-3
5.670000E-8	8.220433E-3
5.675000E-8	8.467097E-3
5.680000E-8	8.705197E-3
5.685000E-8	8.919315E-3
5.690000E-8	9.088897E-3
5.695000E-8	9.224220E-3
5.700000E-8	9.316719E-3
5.705000E-8	9.340701E-3
5.710000E-8	9.292738E-3
5.715000E-8	9.205378E-3
5.720000E-8	9.090611E-3
5.725000E-8	8.926168E-3
5.730000E-8	8.730892E-3
5.735000E-8	8.532190E-3
5.740000E-8	8.335201E-3
5.745000E-8	8.157054E-3
5.750000E-8	8.032009E-3
5.755000E-8	7.972056E-3
5.760000E-8	7.960065E-3
5.765000E-8	7.990898E-3
5.770000E-8	8.066268E-3
5.775000E-8	8.177609E-3
5.780000E-8	8.333487E-3
5.785000E-8	8.508208E-3
5.790000E-8	8.667512E-3
5.795000E-8	8.782280E-3
5.800000E-8	8.855936E-3
5.805000E-8	8.893621E-3
5.810000E-8	8.903899E-3
5.815000E-8	8.893621E-3
5.820000E-8	8.850798E-3
5.825000E-8	8.783992E-3
5.830000E-8	8.725752E-3
5.835000E-8	8.677789E-3
5.840000E-8	8.612697E-3
5.845000E-8	8.518485E-3
5.850000E-8	8.402004E-3
5.855000E-8	8.275246E-3
5.860000E-8	8.169043E-3
5.865000E-8	8.074831E-3
5.870000E-8	7.948073E-3
5.875000E-8	7.769927E-3
5.880000E-8	7.567799E-3
5.885000E-8	7.370811E-3
5.890000E-8	7.189238E-3
5.895000E-8	7.028221E-3
5.900000E-8	6.875769E-3
5.905000E-8	6.745585E-3
5.910000E-8	6.718178E-3
5.915000E-8	6.793547E-3
5.920000E-8	6.901463E-3
5.925000E-8	7.031647E-3
5.930000E-8	7.211506E-3
5.935000E-8	7.393079E-3
5.940000E-8	7.548957E-3
5.945000E-8	7.720252E-3
5.950000E-8	7.903537E-3
5.955000E-8	8.047425E-3
5.960000E-8	8.145063E-3
5.965000E-8	8.252978E-3
5.970000E-8	8.378023E-3
5.975000E-8	8.494504E-3
5.980000E-8	8.598993E-3
5.985000E-8	8.682928E-3
5.990000E-8	8.725751E-3
5.995000E-8	8.737742E-3
6.000000E-8	8.730890E-3
6.005000E-8	8.676076E-3
6.010000E-8	8.547605E-3
6.015000E-8	8.362607E-3
6.020000E-8	8.143350E-3
6.025000E-8	7.918954E-3
6.030000E-8	7.709975E-3
6.035000E-8	7.533541E-3
6.040000E-8	7.403357E-3
6.045000E-8	7.322849E-3
6.050000E-8	7.292015E-3
6.055000E-8	7.292015E-3
6.060000E-8	7.360533E-3
6.065000E-8	7.512985E-3
6.070000E-8	7.692844E-3
6.075000E-8	7.859000E-3
6.080000E-8	8.014879E-3
6.085000E-8	8.169044E-3
6.090000E-8	8.300941E-3
6.095000E-8	8.410570E-3
6.100000E-8	8.503069E-3
6.105000E-8	8.587004E-3
6.110000E-8	8.641818E-3
6.115000E-8	8.640105E-3
6.120000E-8	8.581865E-3
6.125000E-8	8.461959E-3
6.130000E-8	8.276960E-3
6.135000E-8	8.030296E-3
6.140000E-8	7.740808E-3
6.145000E-8	7.446181E-3
6.150000E-8	7.177248E-3
6.155000E-8	6.961417E-3
6.160000E-8	6.815816E-3
6.165000E-8	6.742160E-3
6.170000E-8	6.747299E-3
6.175000E-8	6.827807E-3
6.180000E-8	6.983686E-3
6.185000E-8	7.208082E-3
6.190000E-8	7.471876E-3
6.195000E-8	7.737382E-3
6.200000E-8	7.985760E-3
6.205000E-8	8.199878E-3
6.210000E-8	8.354043E-3
6.215000E-8	8.444829E-3
6.220000E-8	8.472236E-3
6.225000E-8	8.432838E-3
6.230000E-8	8.333487E-3
6.235000E-8	8.201590E-3
6.240000E-8	8.059415E-3
6.245000E-8	7.920667E-3
6.250000E-8	7.805899E-3
6.255000E-8	7.725390E-3
6.260000E-8	7.644882E-3
6.265000E-8	7.571225E-3
6.270000E-8	7.528402E-3
6.275000E-8	7.485578E-3
6.280000E-8	7.406782E-3
6.285000E-8	7.317709E-3
6.290000E-8	7.264608E-3
6.295000E-8	7.216646E-3
6.300000E-8	7.166970E-3
6.305000E-8	7.165258E-3
6.310000E-8	7.254331E-3
6.315000E-8	7.411922E-3
6.320000E-8	7.602059E-3
6.325000E-8	7.829881E-3
6.330000E-8	8.085111E-3
6.335000E-8	8.331775E-3
6.340000E-8	8.540754E-3
6.345000E-8	8.739456E-3
6.350000E-8	8.924454E-3
6.355000E-8	9.076906E-3
6.360000E-8	9.157414E-3
6.365000E-8	9.172831E-3
6.370000E-8	9.100887E-3
6.375000E-8	8.933018E-3
6.380000E-8	8.696631E-3
6.385000E-8	8.434551E-3
6.390000E-8	8.141637E-3
6.395000E-8	7.811038E-3
6.400000E-8	7.490717E-3
6.405000E-8	7.211507E-3
6.410000E-8	6.939149E-3
6.415000E-8	6.699336E-3
6.420000E-8	6.534893E-3
6.425000E-8	6.461237E-3
6.430000E-8	6.462950E-3
6.435000E-8	6.546884E-3
6.440000E-8	6.704475E-3
6.445000E-8	6.935723E-3
6.450000E-8	7.223498E-3
6.455000E-8	7.538681E-3
6.460000E-8	7.864141E-3
6.465000E-8	8.187888E-3
6.470000E-8	8.489367E-3
6.475000E-8	8.749735E-3
6.480000E-8	8.979270E-3
6.485000E-8	9.157417E-3
6.490000E-8	9.249916E-3
6.495000E-8	9.292739E-3
6.500000E-8	9.313295E-3
6.505000E-8	9.285887E-3
6.510000E-8	9.184823E-3
6.515000E-8	9.047787E-3
6.520000E-8	8.898760E-3
6.525000E-8	8.724039E-3
6.530000E-8	8.539041E-3
6.535000E-8	8.333487E-3
6.540000E-8	8.117655E-3
6.545000E-8	7.925805E-3
6.550000E-8	7.761362E-3
6.555000E-8	7.605484E-3
6.560000E-8	7.478726E-3
6.565000E-8	7.387940E-3
6.570000E-8	7.322848E-3
6.575000E-8	7.293728E-3
6.580000E-8	7.314284E-3
6.585000E-8	7.339978E-3
6.590000E-8	7.365673E-3
6.595000E-8	7.427339E-3
6.600000E-8	7.499283E-3
6.605000E-8	7.542106E-3
6.610000E-8	7.588356E-3
6.615000E-8	7.667151E-3
6.620000E-8	7.733956E-3
6.625000E-8	7.783632E-3
6.630000E-8	7.864140E-3
6.635000E-8	7.975482E-3
6.640000E-8	8.097101E-3
6.645000E-8	8.217007E-3
6.650000E-8	8.323209E-3
6.655000E-8	8.432838E-3
6.660000E-8	8.539041E-3
6.665000E-8	8.571586E-3
6.670000E-8	8.516772E-3
6.675000E-8	8.446541E-3
6.680000E-8	8.360894E-3
6.685000E-8	8.206729E-3
6.690000E-8	8.032008E-3
6.695000E-8	7.905250E-3
6.700000E-8	7.804186E-3
6.705000E-8	7.680854E-3
6.710000E-8	7.583216E-3
6.715000E-8	7.543819E-3
6.720000E-8	7.562661E-3
6.725000E-8	7.639744E-3
6.730000E-8	7.775067E-3
6.735000E-8	7.944649E-3
6.740000E-8	8.138212E-3
6.745000E-8	8.343766E-3
6.750000E-8	8.525338E-3
6.755000E-8	8.676078E-3
6.760000E-8	8.806262E-3
6.765000E-8	8.883344E-3
6.770000E-8	8.905613E-3
6.775000E-8	8.902187E-3
6.780000E-8	8.861076E-3
6.785000E-8	8.754873E-3
6.790000E-8	8.593856E-3
6.795000E-8	8.398579E-3
6.800000E-8	8.162192E-3
6.805000E-8	7.912102E-3
6.810000E-8	7.699696E-3
6.815000E-8	7.531827E-3
6.820000E-8	7.406782E-3
6.825000E-8	7.339977E-3
6.830000E-8	7.338264E-3
6.835000E-8	7.384514E-3
6.840000E-8	7.480439E-3
6.845000E-8	7.612336E-3
6.850000E-8	7.730530E-3
6.855000E-8	7.828168E-3
6.860000E-8	7.910390E-3
6.865000E-8	7.941223E-3
6.870000E-8	7.912103E-3
6.875000E-8	7.848724E-3
6.880000E-8	7.771641E-3
6.885000E-8	7.704836E-3
6.890000E-8	7.685993E-3
6.895000E-8	7.709975E-3
6.900000E-8	7.769928E-3
6.905000E-8	7.893260E-3
6.910000E-8	8.079971E-3
6.915000E-8	8.266682E-3
6.920000E-8	8.408857E-3
6.925000E-8	8.503069E-3
6.930000E-8	8.545893E-3
6.935000E-8	8.523625E-3
6.940000E-8	8.407145E-3
6.945000E-8	8.198165E-3
6.950000E-8	7.939510E-3
6.955000E-8	7.706549E-3
6.960000E-8	7.485579E-3
6.965000E-8	7.250905E-3
6.970000E-8	7.047064E-3
6.975000E-8	6.899751E-3
6.980000E-8	6.826094E-3
6.985000E-8	6.858640E-3
6.990000E-8	6.975120E-3
6.995000E-8	7.144702E-3
7.000000E-8	7.363959E-3
7.005000E-8	7.619188E-3
7.010000E-8	7.847010E-3
7.015000E-8	8.042286E-3
7.020000E-8	8.244414E-3
7.025000E-8	8.427699E-3
7.030000E-8	8.563022E-3
7.035000E-8	8.674364E-3
7.040000E-8	8.730892E-3
7.045000E-8	8.712049E-3
7.050000E-8	8.681216E-3
7.055000E-8	8.679503E-3
7.060000E-8	8.634967E-3
7.065000E-8	8.551032E-3
7.070000E-8	8.475663E-3
7.075000E-8	8.391728E-3
7.080000E-8	8.276960E-3
7.085000E-8	8.177609E-3
7.090000E-8	8.103953E-3
7.095000E-8	8.020018E-3
7.100000E-8	7.939510E-3
7.105000E-8	7.886408E-3
7.110000E-8	7.835020E-3
7.115000E-8	7.783632E-3
7.120000E-8	7.721966E-3
7.125000E-8	7.624328E-3
7.130000E-8	7.509560E-3
7.135000E-8	7.435904E-3
7.140000E-8	7.408496E-3
7.145000E-8	7.417061E-3
7.150000E-8	7.461598E-3
7.155000E-8	7.559236E-3
7.160000E-8	7.691133E-3
7.165000E-8	7.836733E-3
7.170000E-8	7.982333E-3
7.175000E-8	8.150202E-3
7.180000E-8	8.314645E-3
7.185000E-8	8.429412E-3
7.190000E-8	8.501356E-3
7.195000E-8	8.564735E-3
7.200000E-8	8.590429E-3
7.205000E-8	8.511633E-3
7.210000E-8	8.366033E-3
7.215000E-8	8.215294E-3
7.220000E-8	8.064554E-3
7.225000E-8	7.903537E-3
7.230000E-8	7.781918E-3
7.235000E-8	7.703123E-3
7.240000E-8	7.632892E-3
7.245000E-8	7.586643E-3
7.250000E-8	7.578078E-3
7.255000E-8	7.584930E-3
7.260000E-8	7.607198E-3
7.265000E-8	7.672290E-3
7.270000E-8	7.766502E-3
7.275000E-8	7.845298E-3
7.280000E-8	7.915529E-3
7.285000E-8	7.987473E-3
7.290000E-8	8.028584E-3
7.295000E-8	8.042287E-3
7.300000E-8	8.026871E-3
7.305000E-8	7.958353E-3
7.310000E-8	7.855576E-3
7.315000E-8	7.787058E-3
7.320000E-8	7.745947E-3
7.325000E-8	7.674003E-3
7.330000E-8	7.598633E-3
7.335000E-8	7.571226E-3
7.340000E-8	7.536967E-3
7.345000E-8	7.459884E-3
7.350000E-8	7.387940E-3
7.355000E-8	7.329700E-3
7.360000E-8	7.252617E-3
7.365000E-8	7.196090E-3
7.370000E-8	7.175534E-3
7.375000E-8	7.172108E-3
7.380000E-8	7.208080E-3
7.385000E-8	7.298867E-3
7.390000E-8	7.434190E-3
7.395000E-8	7.586642E-3
7.400000E-8	7.768214E-3
7.405000E-8	7.963490E-3
7.410000E-8	8.165618E-3
7.415000E-8	8.371172E-3
7.420000E-8	8.528763E-3
7.425000E-8	8.621262E-3
7.430000E-8	8.686355E-3
7.435000E-8	8.698345E-3
7.440000E-8	8.634966E-3
7.445000E-8	8.551032E-3
7.450000E-8	8.468810E-3
7.455000E-8	8.354043E-3
7.460000E-8	8.232424E-3
7.465000E-8	8.162193E-3
7.470000E-8	8.141637E-3
7.475000E-8	8.167332E-3
7.480000E-8	8.237562E-3
7.485000E-8	8.328349E-3
7.490000E-8	8.417422E-3
7.495000E-8	8.525338E-3
7.500000E-8	8.629827E-3
7.505000E-8	8.684642E-3
7.510000E-8	8.700058E-3
7.515000E-8	8.676077E-3
7.520000E-8	8.592142E-3
7.525000E-8	8.472236E-3
7.530000E-8	8.381450E-3
7.535000E-8	8.292376E-3
7.540000E-8	8.174183E-3
7.545000E-8	8.059416E-3
7.550000E-8	7.978907E-3
7.555000E-8	7.900112E-3
7.560000E-8	7.817891E-3
7.565000E-8	7.790484E-3
7.570000E-8	7.817891E-3
7.575000E-8	7.838446E-3
7.580000E-8	7.841872E-3
7.585000E-8	7.869279E-3
7.590000E-8	7.918955E-3
7.595000E-8	7.954926E-3
7.600000E-8	7.980620E-3
7.605000E-8	8.013166E-3
7.610000E-8	8.055990E-3
7.615000E-8	8.078258E-3
7.620000E-8	8.067980E-3
7.625000E-8	8.032008E-3
7.630000E-8	7.968629E-3
7.635000E-8	7.864139E-3
7.640000E-8	7.718539E-3
7.645000E-8	7.562661E-3
7.650000E-8	7.453032E-3
7.655000E-8	7.406783E-3
7.660000E-8	7.405070E-3
7.665000E-8	7.427338E-3
7.670000E-8	7.478727E-3
7.675000E-8	7.557522E-3
7.680000E-8	7.665438E-3
7.685000E-8	7.799048E-3
7.690000E-8	7.934371E-3
7.695000E-8	8.071406E-3
7.700000E-8	8.203303E-3
7.705000E-8	8.290663E-3
7.710000E-8	8.321496E-3
7.715000E-8	8.326635E-3
7.720000E-8	8.295802E-3
7.725000E-8	8.244413E-3
7.730000E-8	8.206729E-3
7.735000E-8	8.177608E-3
7.740000E-8	8.126220E-3
7.745000E-8	8.081684E-3
7.750000E-8	8.085110E-3
7.755000E-8	8.097101E-3
7.760000E-8	8.086823E-3
7.765000E-8	8.095388E-3
7.770000E-8	8.131361E-3
7.775000E-8	8.162194E-3
7.780000E-8	8.194740E-3
7.785000E-8	8.237564E-3
7.790000E-8	8.258119E-3
7.795000E-8	8.258119E-3
7.800000E-8	8.283813E-3
7.805000E-8	8.328349E-3
7.810000E-8	8.354043E-3
7.815000E-8	8.386589E-3
7.820000E-8	8.427700E-3
7.825000E-8	8.473949E-3
7.830000E-8	8.537329E-3
7.835000E-8	8.604134E-3
7.840000E-8	8.650383E-3
7.845000E-8	8.672652E-3
7.850000E-8	8.669226E-3
7.855000E-8	8.624689E-3
7.860000E-8	8.532190E-3
7.865000E-8	8.422561E-3
7.870000E-8	8.307794E-3
7.875000E-8	8.182749E-3
7.880000E-8	8.037148E-3
7.885000E-8	7.898399E-3
7.890000E-8	7.778493E-3
7.895000E-8	7.668864E-3
7.900000E-8	7.586643E-3
7.905000E-8	7.557523E-3
7.910000E-8	7.576365E-3
7.915000E-8	7.614050E-3
7.920000E-8	7.658587E-3
7.925000E-8	7.692846E-3
7.930000E-8	7.718540E-3
7.935000E-8	7.766502E-3
7.940000E-8	7.841872E-3
7.945000E-8	7.888122E-3
7.950000E-8	7.889834E-3
7.955000E-8	7.869279E-3
7.960000E-8	7.833307E-3
7.965000E-8	7.773354E-3
7.970000E-8	7.706549E-3
7.975000E-8	7.651734E-3
7.980000E-8	7.639744E-3
7.985000E-8	7.679142E-3
7.990000E-8	7.730530E-3
7.995000E-8	7.766502E-3
8.000000E-8	7.811039E-3
8.005000E-8	7.857289E-3
8.010000E-8	7.872706E-3
8.015000E-8	7.862428E-3
8.020000E-8	7.850437E-3
8.025000E-8	7.826456E-3
8.030000E-8	7.793910E-3
8.035000E-8	7.768215E-3
8.040000E-8	7.751086E-3
8.045000E-8	7.740808E-3
8.050000E-8	7.749373E-3
8.055000E-8	7.759650E-3
8.060000E-8	7.773354E-3
8.065000E-8	7.807613E-3
8.070000E-8	7.870992E-3
8.075000E-8	7.922381E-3
8.080000E-8	7.927520E-3
8.085000E-8	7.913816E-3
8.090000E-8	7.893261E-3
8.095000E-8	7.870993E-3
8.100000E-8	7.838447E-3
8.105000E-8	7.817892E-3
8.110000E-8	7.816179E-3
8.115000E-8	7.816178E-3
8.120000E-8	7.829882E-3
8.125000E-8	7.893261E-3
8.130000E-8	7.997750E-3
8.135000E-8	8.095388E-3
8.140000E-8	8.169044E-3
8.145000E-8	8.242701E-3
8.150000E-8	8.345478E-3
8.155000E-8	8.458532E-3
8.160000E-8	8.528763E-3
8.165000E-8	8.557883E-3
8.170000E-8	8.585290E-3
8.175000E-8	8.616123E-3
8.180000E-8	8.602420E-3
8.185000E-8	8.573300E-3
8.190000E-8	8.573300E-3
8.195000E-8	8.547606E-3
8.200000E-8	8.446542E-3
8.205000E-8	8.323210E-3
8.210000E-8	8.211868E-3
8.215000E-8	8.093675E-3
8.220000E-8	7.961779E-3
8.225000E-8	7.836734E-3
8.230000E-8	7.733957E-3
8.235000E-8	7.653449E-3
8.240000E-8	7.602060E-3
8.245000E-8	7.586644E-3
8.250000E-8	7.634606E-3
8.255000E-8	7.720254E-3
8.260000E-8	7.792197E-3
8.265000E-8	7.833308E-3
8.270000E-8	7.860715E-3
8.275000E-8	7.884696E-3
8.280000E-8	7.901825E-3
8.285000E-8	7.917242E-3
8.290000E-8	7.924093E-3
8.295000E-8	7.930945E-3
8.300000E-8	7.922380E-3
8.305000E-8	7.881270E-3
8.310000E-8	7.840159E-3
8.315000E-8	7.829882E-3
8.320000E-8	7.838446E-3
8.325000E-8	7.838446E-3
8.330000E-8	7.819604E-3
8.335000E-8	7.785345E-3
8.340000E-8	7.759650E-3
8.345000E-8	7.756224E-3
8.350000E-8	7.771640E-3
8.355000E-8	7.800760E-3
8.360000E-8	7.840158E-3
8.365000E-8	7.882982E-3
8.370000E-8	7.930944E-3
8.375000E-8	7.972055E-3
8.380000E-8	7.985759E-3
8.385000E-8	7.973769E-3
8.390000E-8	7.942936E-3
8.395000E-8	7.901825E-3
8.400000E-8	7.848724E-3
8.405000E-8	7.771642E-3
8.410000E-8	7.665440E-3
8.415000E-8	7.540395E-3
8.420000E-8	7.432479E-3
8.425000E-8	7.360535E-3
8.430000E-8	7.326276E-3
8.435000E-8	7.334841E-3
8.440000E-8	7.365674E-3
8.445000E-8	7.399932E-3
8.450000E-8	7.447895E-3
8.455000E-8	7.523264E-3
8.460000E-8	7.598634E-3
8.465000E-8	7.667151E-3
8.470000E-8	7.733956E-3
8.475000E-8	7.793909E-3
8.480000E-8	7.831594E-3
8.485000E-8	7.853863E-3
8.490000E-8	7.882983E-3
8.495000E-8	7.924094E-3
8.500000E-8	7.973769E-3
8.505000E-8	8.025158E-3
8.510000E-8	8.086824E-3
8.515000E-8	8.151916E-3
8.520000E-8	8.215294E-3
8.525000E-8	8.288951E-3
8.530000E-8	8.357469E-3
8.535000E-8	8.362607E-3
8.540000E-8	8.321496E-3
8.545000E-8	8.280385E-3
8.550000E-8	8.247839E-3
8.555000E-8	8.191312E-3
8.560000E-8	8.115942E-3
8.565000E-8	8.028582E-3
8.570000E-8	7.918954E-3
8.575000E-8	7.809325E-3
8.580000E-8	7.715113E-3
8.585000E-8	7.629466E-3
8.590000E-8	7.567800E-3
8.595000E-8	7.540393E-3
8.600000E-8	7.507847E-3
8.605000E-8	7.466736E-3
8.610000E-8	7.451320E-3
8.615000E-8	7.465023E-3
8.620000E-8	7.470162E-3
8.625000E-8	7.432478E-3
8.630000E-8	7.398219E-3
8.635000E-8	7.391368E-3
8.640000E-8	7.387942E-3
8.645000E-8	7.374239E-3
8.650000E-8	7.360535E-3
8.655000E-8	7.369100E-3
8.660000E-8	7.386229E-3
8.665000E-8	7.396507E-3
8.670000E-8	7.403359E-3
8.675000E-8	7.406784E-3
8.680000E-8	7.429052E-3
8.685000E-8	7.490718E-3
8.690000E-8	7.593495E-3
8.695000E-8	7.709975E-3
8.700000E-8	7.855575E-3
8.705000E-8	8.038861E-3
8.710000E-8	8.244414E-3
8.715000E-8	8.455107E-3
8.720000E-8	8.646957E-3
8.725000E-8	8.807974E-3
8.730000E-8	8.950149E-3
8.735000E-8	9.058065E-3
8.740000E-8	9.075194E-3
8.745000E-8	9.023806E-3
8.750000E-8	8.945011E-3
8.755000E-8	8.819965E-3
8.760000E-8	8.634967E-3
8.765000E-8	8.419136E-3
8.770000E-8	8.196452E-3
8.775000E-8	7.963491E-3
8.780000E-8	7.749373E-3
8.785000E-8	7.588356E-3
8.790000E-8	7.456459E-3
8.795000E-8	7.339978E-3
8.800000E-8	7.268034E-3
8.805000E-8	7.247479E-3
8.810000E-8	7.242340E-3
8.815000E-8	7.254330E-3
8.820000E-8	7.307432E-3
8.825000E-8	7.386227E-3
8.830000E-8	7.442755E-3
8.835000E-8	7.473588E-3
8.840000E-8	7.499282E-3
8.845000E-8	7.521550E-3
8.850000E-8	7.554096E-3
8.855000E-8	7.572939E-3
8.860000E-8	7.576365E-3
8.865000E-8	7.598634E-3
8.870000E-8	7.650022E-3
8.875000E-8	7.679142E-3
8.880000E-8	7.696272E-3
8.885000E-8	7.766503E-3
8.890000E-8	7.877844E-3
8.895000E-8	7.963492E-3
8.900000E-8	8.028584E-3
8.905000E-8	8.129648E-3
8.910000E-8	8.230712E-3
8.915000E-8	8.297517E-3
8.920000E-8	8.350618E-3
8.925000E-8	8.396867E-3
8.930000E-8	8.400293E-3
8.935000E-8	8.369460E-3
8.940000E-8	8.316359E-3
8.945000E-8	8.240989E-3
8.950000E-8	8.158768E-3
8.955000E-8	8.079972E-3
8.960000E-8	7.997751E-3
8.965000E-8	7.920669E-3
8.970000E-8	7.881271E-3
8.975000E-8	7.870993E-3
8.980000E-8	7.870993E-3
8.985000E-8	7.896687E-3
8.990000E-8	7.948075E-3
8.995000E-8	7.985760E-3
9.000000E-8	8.016593E-3
9.005000E-8	8.033722E-3
9.010000E-8	8.018305E-3
9.015000E-8	7.956639E-3
9.020000E-8	7.860714E-3
9.025000E-8	7.725391E-3
9.030000E-8	7.569513E-3
9.035000E-8	7.422200E-3
9.040000E-8	7.276599E-3
9.045000E-8	7.129286E-3
9.050000E-8	7.047065E-3
9.055000E-8	7.031648E-3
9.060000E-8	7.047065E-3
9.065000E-8	7.086462E-3
9.070000E-8	7.151554E-3
9.075000E-8	7.214933E-3
9.080000E-8	7.286877E-3
9.085000E-8	7.405070E-3
9.090000E-8	7.530115E-3
9.095000E-8	7.632892E-3
9.100000E-8	7.713401E-3
9.105000E-8	7.759650E-3
9.110000E-8	7.759650E-3
9.115000E-8	7.759650E-3
9.120000E-8	7.785345E-3
9.125000E-8	7.804187E-3
9.130000E-8	7.833307E-3
9.135000E-8	7.884696E-3
9.140000E-8	7.901825E-3
9.145000E-8	7.877844E-3
9.150000E-8	7.840159E-3
9.155000E-8	7.783632E-3
9.160000E-8	7.694558E-3
9.165000E-8	7.596921E-3
9.170000E-8	7.482153E-3
9.175000E-8	7.357108E-3
9.180000E-8	7.257757E-3
9.185000E-8	7.177248E-3
9.190000E-8	7.088175E-3
9.195000E-8	7.026509E-3
9.200000E-8	7.059055E-3
9.205000E-8	7.132711E-3
9.210000E-8	7.197803E-3
9.215000E-8	7.274886E-3
9.220000E-8	7.365672E-3
9.225000E-8	7.432477E-3
9.230000E-8	7.466736E-3
9.235000E-8	7.485579E-3
9.240000E-8	7.477014E-3
9.245000E-8	7.453033E-3
9.250000E-8	7.432478E-3
9.255000E-8	7.420487E-3
9.260000E-8	7.417062E-3
9.265000E-8	7.454747E-3
9.270000E-8	7.550672E-3
9.275000E-8	7.704837E-3
9.280000E-8	7.898400E-3
9.285000E-8	8.081686E-3
9.290000E-8	8.220434E-3
9.295000E-8	8.324924E-3
9.300000E-8	8.398580E-3
9.305000E-8	8.395154E-3
9.310000E-8	8.312933E-3
9.315000E-8	8.177610E-3
9.320000E-8	7.996037E-3
9.325000E-8	7.785345E-3
9.330000E-8	7.607198E-3
9.335000E-8	7.463311E-3
9.340000E-8	7.339979E-3
9.345000E-8	7.293729E-3
9.350000E-8	7.319424E-3
9.355000E-8	7.333127E-3
9.360000E-8	7.346831E-3
9.365000E-8	7.420488E-3
9.370000E-8	7.504422E-3
9.375000E-8	7.564375E-3
9.380000E-8	7.607199E-3
9.385000E-8	7.608912E-3
9.390000E-8	7.542107E-3
9.395000E-8	7.434191E-3
9.400000E-8	7.307433E-3
9.405000E-8	7.175536E-3
9.410000E-8	7.071046E-3
9.415000E-8	7.002528E-3
9.420000E-8	6.928871E-3
9.425000E-8	6.886047E-3
9.430000E-8	6.906602E-3
9.435000E-8	6.952852E-3
9.440000E-8	7.019657E-3
9.445000E-8	7.160118E-3
9.450000E-8	7.355394E-3
9.455000E-8	7.531828E-3
9.460000E-8	7.694558E-3
9.465000E-8	7.847010E-3
9.470000E-8	7.939509E-3
9.475000E-8	7.980620E-3
9.480000E-8	7.989185E-3
9.485000E-8	7.949787E-3
9.490000E-8	7.862427E-3
9.495000E-8	7.761363E-3
9.500000E-8	7.646595E-3
9.505000E-8	7.512985E-3
9.510000E-8	7.394792E-3
9.515000E-8	7.336552E-3
9.520000E-8	7.339978E-3
9.525000E-8	7.393079E-3
9.530000E-8	7.471875E-3
9.535000E-8	7.578078E-3
9.540000E-8	7.709975E-3
9.545000E-8	7.833307E-3
9.550000E-8	7.903538E-3
9.555000E-8	7.944649E-3
9.560000E-8	7.992612E-3
9.565000E-8	8.038861E-3
9.570000E-8	8.067982E-3
9.575000E-8	8.102241E-3
9.580000E-8	8.146777E-3
9.585000E-8	8.163907E-3
9.590000E-8	8.162194E-3
9.595000E-8	8.167332E-3
9.600000E-8	8.191314E-3
9.605000E-8	8.213582E-3
9.610000E-8	8.232424E-3
9.615000E-8	8.259832E-3
9.620000E-8	8.270109E-3
9.625000E-8	8.278674E-3
9.630000E-8	8.314646E-3
9.635000E-8	8.359183E-3
9.640000E-8	8.398581E-3
9.645000E-8	8.427701E-3
9.650000E-8	8.458534E-3
9.655000E-8	8.475663E-3
9.660000E-8	8.455108E-3
9.665000E-8	8.408858E-3
9.670000E-8	8.348905E-3
9.675000E-8	8.246128E-3
9.680000E-8	8.090250E-3
9.685000E-8	7.915529E-3
9.690000E-8	7.747660E-3
9.695000E-8	7.564375E-3
9.700000E-8	7.374237E-3
9.705000E-8	7.230349E-3
9.710000E-8	7.168683E-3
9.715000E-8	7.173822E-3
9.720000E-8	7.228636E-3
9.725000E-8	7.324561E-3
9.730000E-8	7.456458E-3
9.735000E-8	7.602059E-3
9.740000E-8	7.730530E-3
9.745000E-8	7.821316E-3
9.750000E-8	7.886408E-3
9.755000E-8	7.932658E-3
9.760000E-8	7.953214E-3
9.765000E-8	7.951501E-3
9.770000E-8	7.932659E-3
9.775000E-8	7.882983E-3
9.780000E-8	7.812752E-3
9.785000E-8	7.764790E-3
9.790000E-8	7.721966E-3
9.795000E-8	7.667151E-3
9.800000E-8	7.632892E-3
9.805000E-8	7.646596E-3
9.810000E-8	7.684281E-3
9.815000E-8	7.715114E-3
9.820000E-8	7.721966E-3
9.825000E-8	7.694559E-3
9.830000E-8	7.655161E-3
9.835000E-8	7.656875E-3
9.840000E-8	7.689421E-3
9.845000E-8	7.742522E-3
9.850000E-8	7.819605E-3
9.855000E-8	7.924095E-3
9.860000E-8	8.032010E-3
9.865000E-8	8.121084E-3
9.870000E-8	8.191314E-3
9.875000E-8	8.234138E-3
9.880000E-8	8.268397E-3
9.885000E-8	8.297516E-3
9.890000E-8	8.309507E-3
9.895000E-8	8.300942E-3
9.900000E-8	8.270109E-3
9.905000E-8	8.203304E-3
9.910000E-8	8.119370E-3
9.915000E-8	8.050852E-3
9.920000E-8	7.965205E-3
9.925000E-8	7.840160E-3
9.930000E-8	7.728818E-3
9.935000E-8	7.674004E-3
9.940000E-8	7.614051E-3
9.945000E-8	7.526690E-3
9.950000E-8	7.451320E-3
9.955000E-8	7.393080E-3
9.960000E-8	7.343404E-3
9.965000E-8	7.327988E-3
9.970000E-8	7.365672E-3
9.975000E-8	7.439329E-3
9.980000E-8	7.530115E-3
9.985000E-8	7.653447E-3
9.990000E-8	7.793909E-3
9.995000E-8	7.922380E-3
1.000000E-7	8.042287E-3
1.000500E-7	8.138212E-3
1.001000E-7	8.206730E-3
1.001500E-7	8.259831E-3
1.002000E-7	8.326636E-3
1.002500E-7	8.369460E-3
1.003000E-7	8.371173E-3
1.003500E-7	8.371173E-3
1.004000E-7	8.386589E-3
1.004500E-7	8.395154E-3
1.005000E-7	8.398580E-3
1.005500E-7	8.427700E-3
1.006000E-7	8.441404E-3
1.006500E-7	8.419135E-3
1.007000E-7	8.396867E-3
1.007500E-7	8.355756E-3
1.008000E-7	8.278674E-3
1.008500E-7	8.184462E-3
1.009000E-7	8.112518E-3
1.009500E-7	8.066269E-3
1.010000E-7	8.020019E-3
1.010500E-7	7.978909E-3
1.011000E-7	7.954928E-3
1.011500E-7	7.953215E-3
1.012000E-7	7.960066E-3
1.012500E-7	7.982334E-3
1.013000E-7	8.040575E-3
1.013500E-7	8.109092E-3
1.014000E-7	8.148490E-3
1.014500E-7	8.163906E-3
1.015000E-7	8.187888E-3
1.015500E-7	8.213582E-3
1.016000E-7	8.225572E-3
1.016500E-7	8.254692E-3
1.017000E-7	8.283812E-3
1.017500E-7	8.285525E-3
1.018000E-7	8.259831E-3
1.018500E-7	8.234137E-3
1.019000E-7	8.205017E-3
1.019500E-7	8.165619E-3
1.020000E-7	8.121083E-3
1.020500E-7	8.069695E-3
1.021000E-7	8.013167E-3
1.021500E-7	7.948075E-3
1.022000E-7	7.864141E-3
1.022500E-7	7.769929E-3
1.023000E-7	7.706550E-3
1.023500E-7	7.663726E-3
1.024000E-7	7.632893E-3
1.024500E-7	7.620902E-3
1.025000E-7	7.622615E-3
1.025500E-7	7.603773E-3
1.026000E-7	7.559236E-3
1.026500E-7	7.524977E-3
1.027000E-7	7.477014E-3
1.027500E-7	7.389654E-3
1.028000E-7	7.278313E-3
1.028500E-7	7.142990E-3
1.029000E-7	6.963130E-3
1.029500E-7	6.788409E-3
1.030000E-7	6.673642E-3
1.030500E-7	6.596559E-3
1.031000E-7	6.546883E-3
1.031500E-7	6.586281E-3
1.032000E-7	6.689058E-3
1.032500E-7	6.788409E-3
1.033000E-7	6.911741E-3
1.033500E-7	7.100165E-3
1.034000E-7	7.295441E-3
1.034500E-7	7.432477E-3
1.035000E-7	7.545532E-3
1.035500E-7	7.651735E-3
1.036000E-7	7.718540E-3
1.036500E-7	7.744234E-3
1.037000E-7	7.763077E-3
1.037500E-7	7.778493E-3
1.038000E-7	7.787057E-3
1.038500E-7	7.800761E-3
1.039000E-7	7.819603E-3
1.039500E-7	7.836732E-3
1.040000E-7	7.860713E-3
1.040500E-7	7.915527E-3
1.041000E-7	7.999462E-3
1.041500E-7	8.073119E-3
1.042000E-7	8.124507E-3
1.042500E-7	8.172470E-3
1.043000E-7	8.228998E-3
1.043500E-7	8.261544E-3
1.044000E-7	8.252979E-3
1.044500E-7	8.240988E-3
1.045000E-7	8.239275E-3
1.045500E-7	8.210155E-3
1.046000E-7	8.148489E-3
1.046500E-7	8.074832E-3
1.047000E-7	8.011453E-3
1.047500E-7	7.941222E-3
1.048000E-7	7.862427E-3
1.048500E-7	7.804186E-3
1.049000E-7	7.766502E-3
1.049500E-7	7.744234E-3
1.050000E-7	7.769928E-3
1.050500E-7	7.845298E-3
1.051000E-7	7.954927E-3
1.051500E-7	8.078259E-3
1.052000E-7	8.198165E-3
1.052500E-7	8.288951E-3
1.053000E-7	8.352330E-3
1.053500E-7	8.402006E-3
1.054000E-7	8.410570E-3
1.054500E-7	8.350617E-3
1.055000E-7	8.234136E-3
1.055500E-7	8.069693E-3
1.056000E-7	7.864140E-3
1.056500E-7	7.639744E-3
1.057000E-7	7.422199E-3
1.057500E-7	7.221785E-3
1.058000E-7	7.062481E-3
1.058500E-7	6.988825E-3
1.059000E-7	6.999103E-3
1.059500E-7	7.053917E-3
1.060000E-7	7.146417E-3
1.060500E-7	7.274888E-3
1.061000E-7	7.422201E-3
1.061500E-7	7.574654E-3
1.062000E-7	7.733958E-3
1.062500E-7	7.876132E-3
1.063000E-7	7.966918E-3
1.063500E-7	8.025159E-3
1.064000E-7	8.061130E-3
1.064500E-7	8.054279E-3
1.065000E-7	8.021733E-3
1.065500E-7	7.987473E-3
1.066000E-7	7.939511E-3
1.066500E-7	7.850437E-3
1.067000E-7	7.773355E-3
1.067500E-7	7.725392E-3
1.068000E-7	7.692846E-3
1.068500E-7	7.704836E-3
1.069000E-7	7.756224E-3
1.069500E-7	7.800761E-3
1.070000E-7	7.809326E-3
1.070500E-7	7.812751E-3
1.071000E-7	7.817890E-3
1.071500E-7	7.836733E-3
1.072000E-7	7.860714E-3
1.072500E-7	7.874418E-3
1.073000E-7	7.864140E-3
1.073500E-7	7.859002E-3
1.074000E-7	7.819604E-3
1.074500E-7	7.725392E-3
1.075000E-7	7.614051E-3
1.075500E-7	7.502709E-3
1.076000E-7	7.365673E-3
1.076500E-7	7.240628E-3
1.077000E-7	7.166971E-3
1.077500E-7	7.130999E-3
1.078000E-7	7.124147E-3
1.078500E-7	7.160119E-3
1.079000E-7	7.237202E-3
1.079500E-7	7.341691E-3
1.080000E-7	7.471875E-3
1.080500E-7	7.614050E-3
1.081000E-7	7.747660E-3
1.081500E-7	7.860715E-3
1.082000E-7	7.934371E-3
1.082500E-7	7.954927E-3
1.083000E-7	7.942936E-3
1.083500E-7	7.927520E-3
1.084000E-7	7.876131E-3
1.084500E-7	7.797336E-3
1.085000E-7	7.721966E-3
1.085500E-7	7.653448E-3
1.086000E-7	7.560949E-3
1.086500E-7	7.461598E-3
1.087000E-7	7.379376E-3
1.087500E-7	7.327988E-3
1.088000E-7	7.295442E-3
1.088500E-7	7.297155E-3
1.089000E-7	7.329701E-3
1.089500E-7	7.375950E-3
1.090000E-7	7.437617E-3
1.090500E-7	7.524977E-3
1.091000E-7	7.648309E-3
1.091500E-7	7.797336E-3
1.092000E-7	7.968630E-3
1.092500E-7	8.122796E-3
1.093000E-7	8.244415E-3
1.093500E-7	8.324923E-3
1.094000E-7	8.367747E-3
1.094500E-7	8.367747E-3
1.095000E-7	8.333488E-3
1.095500E-7	8.273535E-3
1.096000E-7	8.198165E-3
1.096500E-7	8.098815E-3
1.097000E-7	7.980621E-3
1.097500E-7	7.898400E-3
1.098000E-7	7.891548E-3
1.098500E-7	7.920668E-3
1.099000E-7	7.932659E-3
1.099500E-7	7.958353E-3
1.100000E-7	8.030296E-3
1.100500E-7	8.103953E-3
1.101000E-7	8.155342E-3
1.101500E-7	8.191313E-3
1.102000E-7	8.210156E-3
1.102500E-7	8.203304E-3
1.103000E-7	8.167332E-3
1.103500E-7	8.055991E-3
1.104000E-7	7.876131E-3
1.104500E-7	7.728818E-3
1.105000E-7	7.646596E-3
1.105500E-7	7.560949E-3
1.106000E-7	7.473588E-3
1.106500E-7	7.449607E-3
1.107000E-7	7.470162E-3
1.107500E-7	7.494144E-3
1.108000E-7	7.519838E-3
1.108500E-7	7.554097E-3
1.109000E-7	7.588356E-3
1.109500E-7	7.634606E-3
1.110000E-7	7.651735E-3
1.110500E-7	7.607199E-3
1.111000E-7	7.543820E-3
1.111500E-7	7.480441E-3
1.112000E-7	7.381090E-3
1.112500E-7	7.257757E-3
1.113000E-7	7.196091E-3
1.113500E-7	7.218359E-3
1.114000E-7	7.274886E-3
1.114500E-7	7.353682E-3
1.115000E-7	7.471875E-3
1.115500E-7	7.620902E-3
1.116000E-7	7.780206E-3
1.116500E-7	7.951501E-3
1.117000E-7	8.102240E-3
1.117500E-7	8.198165E-3
1.118000E-7	8.251266E-3
1.118500E-7	8.266683E-3
1.119000E-7	8.237563E-3
1.119500E-7	8.177610E-3
1.120000E-7	8.112518E-3
1.120500E-7	8.038861E-3
1.121000E-7	7.956639E-3
1.121500E-7	7.894973E-3
1.122000E-7	7.889835E-3
1.122500E-7	7.924094E-3
1.123000E-7	7.954927E-3
1.123500E-7	7.966918E-3
1.124000E-7	7.975483E-3
1.124500E-7	7.987474E-3
1.125000E-7	7.989187E-3
1.125500E-7	7.961780E-3
1.126000E-7	7.894975E-3
1.126500E-7	7.799050E-3
1.127000E-7	7.667153E-3
1.127500E-7	7.523265E-3
1.128000E-7	7.393080E-3
1.128500E-7	7.283451E-3
1.129000E-7	7.184100E-3
1.129500E-7	7.117295E-3
1.130000E-7	7.107017E-3
1.130500E-7	7.117294E-3
1.131000E-7	7.154979E-3
1.131500E-7	7.250904E-3
1.132000E-7	7.381089E-3
1.132500E-7	7.509560E-3
1.133000E-7	7.622615E-3
1.133500E-7	7.721966E-3
1.134000E-7	7.775067E-3
1.134500E-7	7.759651E-3
1.135000E-7	7.694559E-3
1.135500E-7	7.610625E-3
1.136000E-7	7.531830E-3
1.136500E-7	7.446183E-3
1.137000E-7	7.353684E-3
1.137500E-7	7.290305E-3
1.138000E-7	7.305721E-3
1.138500E-7	7.372526E-3
1.139000E-7	7.480441E-3
1.139500E-7	7.653449E-3
1.140000E-7	7.862428E-3
1.140500E-7	8.045713E-3
1.141000E-7	8.158767E-3
1.141500E-7	8.211869E-3
1.142000E-7	8.187887E-3
1.142500E-7	8.110804E-3
1.143000E-7	7.996037E-3
1.143500E-7	7.833307E-3
1.144000E-7	7.644883E-3
1.144500E-7	7.480440E-3
1.145000E-7	7.362247E-3
1.145500E-7	7.278313E-3
1.146000E-7	7.228638E-3
1.146500E-7	7.228638E-3
1.147000E-7	7.257758E-3
1.147500E-7	7.319424E-3
1.148000E-7	7.415349E-3
1.148500E-7	7.511274E-3
1.149000E-7	7.579792E-3
1.149500E-7	7.627754E-3
1.150000E-7	7.687707E-3
1.150500E-7	7.745947E-3
1.151000E-7	7.759650E-3
1.151500E-7	7.733956E-3
1.152000E-7	7.718539E-3
1.152500E-7	7.713401E-3
1.153000E-7	7.706549E-3
1.153500E-7	7.704836E-3
1.154000E-7	7.708262E-3
1.154500E-7	7.697984E-3
1.155000E-7	7.692846E-3
1.155500E-7	7.708262E-3
1.156000E-7	7.723679E-3
1.156500E-7	7.718540E-3
1.157000E-7	7.733957E-3
1.157500E-7	7.781920E-3
1.158000E-7	7.826456E-3
1.158500E-7	7.855576E-3
1.159000E-7	7.891548E-3
1.159500E-7	7.941224E-3
1.160000E-7	7.978908E-3
1.160500E-7	8.008029E-3
1.161000E-7	8.054278E-3
1.161500E-7	8.112518E-3
1.162000E-7	8.153629E-3
1.162500E-7	8.160481E-3
1.163000E-7	8.133073E-3
1.163500E-7	8.086824E-3
1.164000E-7	8.033723E-3
1.164500E-7	7.980621E-3
1.165000E-7	7.918955E-3
1.165500E-7	7.819604E-3
1.166000E-7	7.687707E-3
1.166500E-7	7.536968E-3
1.167000E-7	7.375951E-3
1.167500E-7	7.235489E-3
1.168000E-7	7.119009E-3
1.168500E-7	7.029936E-3
1.169000E-7	6.947714E-3
1.169500E-7	6.894613E-3
1.170000E-7	6.858641E-3
1.170500E-7	6.844937E-3
1.171000E-7	6.886048E-3
1.171500E-7	6.952853E-3
1.172000E-7	7.016232E-3
1.172500E-7	7.093314E-3
1.173000E-7	7.189239E-3
1.173500E-7	7.283451E-3
1.174000E-7	7.367385E-3
1.174500E-7	7.451320E-3
1.175000E-7	7.533541E-3
1.175500E-7	7.557523E-3
1.176000E-7	7.526690E-3
1.176500E-7	7.459885E-3
1.177000E-7	7.403358E-3
1.177500E-7	7.365673E-3
1.178000E-7	7.351970E-3
1.178500E-7	7.346831E-3
1.179000E-7	7.375951E-3
1.179500E-7	7.432478E-3
1.180000E-7	7.473589E-3
1.180500E-7	7.497570E-3
1.181000E-7	7.542106E-3
1.181500E-7	7.593495E-3
1.182000E-7	7.608911E-3
1.182500E-7	7.608911E-3
1.183000E-7	7.619189E-3
1.183500E-7	7.588356E-3
1.184000E-7	7.509560E-3
1.184500E-7	7.444468E-3
1.185000E-7	7.423913E-3
1.185500E-7	7.420487E-3
1.186000E-7	7.430765E-3
1.186500E-7	7.487292E-3
1.187000E-7	7.550671E-3
1.187500E-7	7.591782E-3
1.188000E-7	7.632893E-3
1.188500E-7	7.674004E-3
1.189000E-7	7.694559E-3
1.189500E-7	7.687708E-3
1.190000E-7	7.662014E-3
1.190500E-7	7.626042E-3
1.191000E-7	7.600348E-3
1.191500E-7	7.607200E-3
1.192000E-7	7.651737E-3
1.192500E-7	7.711690E-3
1.193000E-7	7.778495E-3
1.193500E-7	7.870994E-3
1.194000E-7	7.963493E-3
1.194500E-7	8.021733E-3
1.195000E-7	8.026872E-3
1.195500E-7	7.987474E-3
1.196000E-7	7.896687E-3
1.196500E-7	7.757938E-3
1.197000E-7	7.603773E-3
1.197500E-7	7.475302E-3
1.198000E-7	7.372525E-3
1.198500E-7	7.310859E-3
1.199000E-7	7.309146E-3
1.199500E-7	7.382803E-3
1.200000E-7	7.512987E-3
1.200500E-7	7.685995E-3
1.201000E-7	7.859003E-3
1.201500E-7	7.999464E-3
1.202000E-7	8.121083E-3
1.202500E-7	8.230712E-3
1.203000E-7	8.280387E-3
1.203500E-7	8.259832E-3
1.204000E-7	8.225573E-3
1.204500E-7	8.158768E-3
1.205000E-7	7.994325E-3
1.205500E-7	7.792197E-3
1.206000E-7	7.643170E-3
1.206500E-7	7.531828E-3
1.207000E-7	7.442755E-3
1.207500E-7	7.423913E-3
1.208000E-7	7.468449E-3
1.208500E-7	7.538680E-3
1.209000E-7	7.651735E-3
1.209500E-7	7.799048E-3
1.210000E-7	7.917242E-3
1.210500E-7	7.975482E-3
1.211000E-7	8.001176E-3
1.211500E-7	7.975482E-3
1.212000E-7	7.920668E-3
1.212500E-7	7.893261E-3
1.213000E-7	7.876132E-3
1.213500E-7	7.819604E-3
1.214000E-7	7.740809E-3
1.214500E-7	7.689420E-3
1.215000E-7	7.677429E-3
1.215500E-7	7.706549E-3
1.216000E-7	7.785345E-3
1.216500E-7	7.886409E-3
1.217000E-7	7.987472E-3
1.217500E-7	8.079971E-3
1.218000E-7	8.150202E-3
1.218500E-7	8.160480E-3
1.219000E-7	8.112517E-3
1.219500E-7	8.033722E-3
1.220000E-7	7.922381E-3
1.220500E-7	7.759651E-3
1.221000E-7	7.578078E-3
1.221500E-7	7.422200E-3
1.222000E-7	7.302294E-3
1.222500E-7	7.216647E-3
1.223000E-7	7.185814E-3
1.223500E-7	7.225212E-3
1.224000E-7	7.302294E-3
1.224500E-7	7.410210E-3
1.225000E-7	7.540394E-3
1.225500E-7	7.684281E-3
1.226000E-7	7.841872E-3
1.226500E-7	8.018306E-3
1.227000E-7	8.181035E-3
1.227500E-7	8.300942E-3
1.228000E-7	8.402005E-3
1.228500E-7	8.501356E-3
1.229000E-7	8.563022E-3
1.229500E-7	8.593855E-3
1.230000E-7	8.633253E-3
1.230500E-7	8.658948E-3
1.231000E-7	8.617837E-3
1.231500E-7	8.537329E-3
1.232000E-7	8.443117E-3
1.232500E-7	8.324924E-3
1.233000E-7	8.162194E-3
1.233500E-7	7.999464E-3
1.234000E-7	7.852151E-3
1.234500E-7	7.723680E-3
1.235000E-7	7.629467E-3
1.235500E-7	7.579792E-3
1.236000E-7	7.571227E-3
1.236500E-7	7.615764E-3
1.237000E-7	7.713401E-3
1.237500E-7	7.841872E-3
1.238000E-7	7.970343E-3
1.238500E-7	8.103953E-3
1.239000E-7	8.237563E-3
1.239500E-7	8.345479E-3
1.240000E-7	8.413997E-3
1.240500E-7	8.429414E-3
1.241000E-7	8.366035E-3
1.241500E-7	8.242703E-3
1.242000E-7	8.098816E-3
1.242500E-7	7.930947E-3
1.243000E-7	7.730532E-3
1.243500E-7	7.555812E-3
1.244000E-7	7.470164E-3
1.244500E-7	7.430766E-3
1.245000E-7	7.411924E-3
1.245500E-7	7.430766E-3
1.246000E-7	7.500997E-3
1.246500E-7	7.608912E-3
1.247000E-7	7.769929E-3
1.247500E-7	7.973769E-3
1.248000E-7	8.172471E-3
1.248500E-7	8.336914E-3
1.249000E-7	8.451681E-3
1.249500E-7	8.520199E-3
1.250000E-7	8.539041E-3
1.250500E-7	8.485940E-3
1.251000E-7	8.384876E-3
1.251500E-7	8.264970E-3
1.252000E-7	8.141638E-3
1.252500E-7	8.044000E-3
1.253000E-7	7.996038E-3
1.253500E-7	8.001176E-3
1.254000E-7	8.004602E-3
1.254500E-7	8.004603E-3
1.255000E-7	8.013167E-3
1.255500E-7	8.023445E-3
1.256000E-7	8.009741E-3
1.256500E-7	7.992612E-3
1.257000E-7	7.972057E-3
1.257500E-7	7.941224E-3
1.258000E-7	7.894974E-3
1.258500E-7	7.831595E-3
1.259000E-7	7.766503E-3
1.259500E-7	7.715115E-3
1.260000E-7	7.684282E-3
1.260500E-7	7.662013E-3
1.261000E-7	7.684281E-3
1.261500E-7	7.766503E-3
1.262000E-7	7.872705E-3
1.262500E-7	7.958352E-3
1.263000E-7	8.006315E-3
1.263500E-7	8.023444E-3
1.264000E-7	8.025156E-3
1.264500E-7	8.025156E-3
1.265000E-7	7.994323E-3
1.265500E-7	7.912102E-3
1.266000E-7	7.812751E-3
1.266500E-7	7.723677E-3
1.267000E-7	7.653447E-3
1.267500E-7	7.590068E-3
1.268000E-7	7.535254E-3
1.268500E-7	7.494143E-3
1.269000E-7	7.506134E-3
1.269500E-7	7.559236E-3
1.270000E-7	7.607199E-3
1.270500E-7	7.641458E-3
1.271000E-7	7.691133E-3
1.271500E-7	7.727105E-3
1.272000E-7	7.728818E-3
1.272500E-7	7.720253E-3
1.273000E-7	7.691133E-3
1.273500E-7	7.610625E-3
1.274000E-7	7.497570E-3
1.274500E-7	7.394793E-3
1.275000E-7	7.288591E-3
1.275500E-7	7.177249E-3
1.276000E-7	7.098453E-3
1.276500E-7	7.064194E-3
1.277000E-7	7.079611E-3
1.277500E-7	7.127573E-3
1.278000E-7	7.196091E-3
1.278500E-7	7.264609E-3
1.279000E-7	7.355395E-3
1.279500E-7	7.473588E-3
1.280000E-7	7.590068E-3
1.280500E-7	7.691132E-3
1.281000E-7	7.771640E-3
1.281500E-7	7.848723E-3
1.282000E-7	7.925806E-3
1.282500E-7	7.978907E-3
1.283000E-7	7.997750E-3
1.283500E-7	8.014879E-3
1.284000E-7	8.061129E-3
1.284500E-7	8.107379E-3
1.285000E-7	8.136499E-3
1.285500E-7	8.165619E-3
1.286000E-7	8.186174E-3
1.286500E-7	8.172471E-3
1.287000E-7	8.115944E-3
1.287500E-7	8.059416E-3
1.288000E-7	8.032009E-3
1.288500E-7	8.014880E-3
1.289000E-7	7.985760E-3
1.289500E-7	7.965205E-3
1.290000E-7	7.999464E-3
1.290500E-7	8.064556E-3
1.291000E-7	8.105666E-3
1.291500E-7	8.115944E-3
1.292000E-7	8.122796E-3
1.292500E-7	8.146777E-3
1.293000E-7	8.160480E-3
1.293500E-7	8.127934E-3
1.294000E-7	8.050852E-3
1.294500E-7	7.954927E-3
1.295000E-7	7.862428E-3
1.295500E-7	7.795623E-3
1.296000E-7	7.764790E-3
1.296500E-7	7.773355E-3
1.297000E-7	7.831595E-3
1.297500E-7	7.920669E-3
1.298000E-7	8.050853E-3
1.298500E-7	8.206731E-3
1.299000E-7	8.348906E-3
1.299500E-7	8.443118E-3
1.300000E-7	8.499645E-3
1.300500E-7	8.525338E-3
1.301000E-7	8.491079E-3
1.301500E-7	8.372886E-3
1.302000E-7	8.215294E-3
1.302500E-7	8.061129E-3
1.303000E-7	7.886409E-3
1.303500E-7	7.709975E-3
1.304000E-7	7.588356E-3
1.304500E-7	7.519838E-3
1.305000E-7	7.473589E-3
1.305500E-7	7.435904E-3
1.306000E-7	7.406784E-3
1.306500E-7	7.387942E-3
1.307000E-7	7.384516E-3
1.307500E-7	7.393081E-3
1.308000E-7	7.405071E-3
1.308500E-7	7.415348E-3
1.309000E-7	7.387941E-3
1.309500E-7	7.315997E-3
1.310000E-7	7.261182E-3
1.310500E-7	7.240627E-3
1.311000E-7	7.247479E-3
1.311500E-7	7.324561E-3
1.312000E-7	7.478727E-3
1.312500E-7	7.638031E-3
1.313000E-7	7.763076E-3
1.313500E-7	7.901825E-3
1.314000E-7	8.043999E-3
1.314500E-7	8.150202E-3
1.315000E-7	8.220433E-3
1.315500E-7	8.273534E-3
1.316000E-7	8.307793E-3
1.316500E-7	8.335200E-3
1.317000E-7	8.347191E-3
1.317500E-7	8.338627E-3
1.318000E-7	8.335201E-3
1.318500E-7	8.340340E-3
1.319000E-7	8.323210E-3
1.319500E-7	8.288952E-3
1.320000E-7	8.285526E-3
1.320500E-7	8.280387E-3
1.321000E-7	8.223860E-3
1.321500E-7	8.133074E-3
1.322000E-7	8.018307E-3
1.322500E-7	7.872706E-3
1.323000E-7	7.725393E-3
1.323500E-7	7.610625E-3
1.324000E-7	7.531830E-3
1.324500E-7	7.480441E-3
1.325000E-7	7.471877E-3
1.325500E-7	7.506136E-3
1.326000E-7	7.579792E-3
1.326500E-7	7.709976E-3
1.327000E-7	7.869280E-3
1.327500E-7	8.008029E-3
1.328000E-7	8.122797E-3
1.328500E-7	8.247842E-3
1.329000E-7	8.352332E-3
1.329500E-7	8.405433E-3
1.330000E-7	8.405433E-3
1.330500E-7	8.376312E-3
1.331000E-7	8.300943E-3
1.331500E-7	8.205017E-3
1.332000E-7	8.110805E-3
1.332500E-7	8.023444E-3
1.333000E-7	7.954926E-3
1.333500E-7	7.944649E-3
1.334000E-7	7.949787E-3
1.334500E-7	7.918955E-3
1.335000E-7	7.896686E-3
1.335500E-7	7.922381E-3
1.336000E-7	7.954927E-3
1.336500E-7	7.970344E-3
1.337000E-7	7.987473E-3
1.337500E-7	7.987473E-3
1.338000E-7	7.987474E-3
1.338500E-7	8.011455E-3
1.339000E-7	8.064556E-3
1.339500E-7	8.139926E-3
1.340000E-7	8.237564E-3
1.340500E-7	8.348905E-3
1.341000E-7	8.451682E-3
1.341500E-7	8.545894E-3
1.342000E-7	8.621263E-3
1.342500E-7	8.665800E-3
1.343000E-7	8.669226E-3
1.343500E-7	8.624689E-3
1.344000E-7	8.540754E-3
1.344500E-7	8.439690E-3
1.345000E-7	8.307794E-3
1.345500E-7	8.145064E-3
1.346000E-7	7.980621E-3
1.346500E-7	7.843585E-3
1.347000E-7	7.727104E-3
1.347500E-7	7.651735E-3
1.348000E-7	7.646596E-3
1.348500E-7	7.689420E-3
1.349000E-7	7.752799E-3
1.349500E-7	7.857289E-3
1.350000E-7	7.949788E-3
1.350500E-7	8.013167E-3
1.351000E-7	8.095388E-3
1.351500E-7	8.184462E-3
1.352000E-7	8.208443E-3
1.352500E-7	8.181036E-3
1.353000E-7	8.162193E-3
1.353500E-7	8.105666E-3
1.354000E-7	7.972056E-3
1.354500E-7	7.853863E-3
1.355000E-7	7.793910E-3
1.355500E-7	7.735669E-3
1.356000E-7	7.694559E-3
1.356500E-7	7.728818E-3
1.357000E-7	7.812752E-3
1.357500E-7	7.898399E-3
1.358000E-7	7.972056E-3
1.358500E-7	8.013167E-3
1.359000E-7	8.014880E-3
1.359500E-7	8.006315E-3
1.360000E-7	7.997750E-3
1.360500E-7	7.948075E-3
1.361000E-7	7.859001E-3
1.361500E-7	7.739095E-3
1.362000E-7	7.600346E-3
1.362500E-7	7.471875E-3
1.363000E-7	7.363960E-3
1.363500E-7	7.237202E-3
1.364000E-7	7.113870E-3
1.364500E-7	7.057343E-3
1.365000E-7	7.060769E-3
1.365500E-7	7.053917E-3
1.366000E-7	7.057343E-3
1.366500E-7	7.127574E-3
1.367000E-7	7.218360E-3
1.367500E-7	7.297156E-3
1.368000E-7	7.411923E-3
1.368500E-7	7.548959E-3
1.369000E-7	7.653449E-3
1.369500E-7	7.715114E-3
1.370000E-7	7.771642E-3
1.370500E-7	7.817891E-3
1.371000E-7	7.853863E-3
1.371500E-7	7.879557E-3
1.372000E-7	7.901825E-3
1.372500E-7	7.937797E-3
1.373000E-7	8.006315E-3
1.373500E-7	8.074833E-3
1.374000E-7	8.133073E-3
1.374500E-7	8.201591E-3
1.375000E-7	8.278674E-3
1.375500E-7	8.319784E-3
1.376000E-7	8.335201E-3
1.376500E-7	8.366034E-3
1.377000E-7	8.384877E-3
1.377500E-7	8.378025E-3
1.378000E-7	8.352331E-3
1.378500E-7	8.299229E-3
1.379000E-7	8.228998E-3
1.379500E-7	8.177610E-3
1.380000E-7	8.139925E-3
1.380500E-7	8.095388E-3
1.381000E-7	8.059416E-3
1.381500E-7	8.026870E-3
1.382000E-7	7.948075E-3
1.382500E-7	7.859001E-3
1.383000E-7	7.797335E-3
1.383500E-7	7.751086E-3
1.384000E-7	7.708262E-3
1.384500E-7	7.694559E-3
1.385000E-7	7.694559E-3
1.385500E-7	7.679143E-3
1.386000E-7	7.682569E-3
1.386500E-7	7.709976E-3
1.387000E-7	7.723679E-3
1.387500E-7	7.735670E-3
1.388000E-7	7.768215E-3
1.388500E-7	7.792197E-3
1.389000E-7	7.816178E-3
1.389500E-7	7.869279E-3
1.390000E-7	7.912102E-3
1.390500E-7	7.908677E-3
1.391000E-7	7.898399E-3
1.391500E-7	7.896686E-3
1.392000E-7	7.879557E-3
1.392500E-7	7.865853E-3
1.393000E-7	7.891548E-3
1.393500E-7	7.927520E-3
1.394000E-7	7.929233E-3
1.394500E-7	7.927520E-3
1.395000E-7	7.936085E-3
1.395500E-7	7.939512E-3
1.396000E-7	7.934373E-3
1.396500E-7	7.944651E-3
1.397000E-7	7.956641E-3
1.397500E-7	7.948076E-3
1.398000E-7	7.917243E-3
1.398500E-7	7.867568E-3
1.399000E-7	7.783633E-3
1.399500E-7	7.674004E-3
1.400000E-7	7.567801E-3
1.400500E-7	7.459886E-3
1.401000E-7	7.353683E-3
1.401500E-7	7.295443E-3
1.402000E-7	7.302294E-3
1.402500E-7	7.343405E-3
1.403000E-7	7.415349E-3
1.403500E-7	7.530117E-3
1.404000E-7	7.680856E-3
1.404500E-7	7.833308E-3
1.405000E-7	7.978909E-3
1.405500E-7	8.086824E-3
1.406000E-7	8.151916E-3
1.406500E-7	8.181036E-3
1.407000E-7	8.163907E-3
1.407500E-7	8.085111E-3
1.408000E-7	7.982334E-3
1.408500E-7	7.896687E-3
1.409000E-7	7.833308E-3
1.409500E-7	7.790484E-3
1.410000E-7	7.802475E-3
1.410500E-7	7.850437E-3
1.411000E-7	7.915529E-3
1.411500E-7	7.992611E-3
1.412000E-7	8.069694E-3
1.412500E-7	8.136499E-3
1.413000E-7	8.206729E-3
1.413500E-7	8.276960E-3
1.414000E-7	8.304367E-3
1.414500E-7	8.304368E-3
1.415000E-7	8.287238E-3
1.415500E-7	8.234137E-3
1.416000E-7	8.134786E-3
1.416500E-7	8.018306E-3
1.417000E-7	7.881270E-3
1.417500E-7	7.725392E-3
1.418000E-7	7.581504E-3
1.418500E-7	7.459885E-3
1.419000E-7	7.338266E-3
1.419500E-7	7.257757E-3
1.420000E-7	7.242340E-3
1.420500E-7	7.254330E-3
1.421000E-7	7.307431E-3
1.421500E-7	7.434189E-3
1.422000E-7	7.602058E-3
1.422500E-7	7.797334E-3
1.423000E-7	8.026869E-3
1.423500E-7	8.251266E-3
1.424000E-7	8.403718E-3
1.424500E-7	8.503069E-3
1.425000E-7	8.573301E-3
1.425500E-7	8.602421E-3
1.426000E-7	8.597283E-3
1.426500E-7	8.575015E-3
1.427000E-7	8.516775E-3
1.427500E-7	8.407146E-3
1.428000E-7	8.306082E-3
1.428500E-7	8.222148E-3
1.429000E-7	8.102242E-3
1.429500E-7	7.927521E-3
1.430000E-7	7.756226E-3
1.430500E-7	7.603773E-3
1.431000E-7	7.463311E-3
1.431500E-7	7.350257E-3
1.432000E-7	7.285164E-3
1.432500E-7	7.252618E-3
1.433000E-7	7.242341E-3
1.433500E-7	7.268035E-3
1.434000E-7	7.307433E-3
1.434500E-7	7.339979E-3
1.435000E-7	7.401645E-3
1.435500E-7	7.504422E-3
1.436000E-7	7.598634E-3
1.436500E-7	7.668865E-3
1.437000E-7	7.742522E-3
1.437500E-7	7.792197E-3
1.438000E-7	7.773355E-3
1.438500E-7	7.737382E-3
1.439000E-7	7.718540E-3
1.439500E-7	7.689419E-3
1.440000E-7	7.648308E-3
1.440500E-7	7.629466E-3
1.441000E-7	7.626040E-3
1.441500E-7	7.636317E-3
1.442000E-7	7.684280E-3
1.442500E-7	7.740807E-3
1.443000E-7	7.792196E-3
1.443500E-7	7.864140E-3
1.444000E-7	7.951500E-3
1.444500E-7	8.032009E-3
1.445000E-7	8.102240E-3
1.445500E-7	8.165619E-3
1.446000E-7	8.206730E-3
1.446500E-7	8.228998E-3
1.447000E-7	8.230711E-3
1.447500E-7	8.196452E-3
1.448000E-7	8.127934E-3
1.448500E-7	8.057703E-3
1.449000E-7	7.992611E-3
1.449500E-7	7.910390E-3
1.450000E-7	7.864141E-3
1.450500E-7	7.874418E-3
1.451000E-7	7.891548E-3
1.451500E-7	7.872705E-3
1.452000E-7	7.877844E-3
1.452500E-7	7.927520E-3
1.453000E-7	7.958353E-3
1.453500E-7	7.913816E-3
1.454000E-7	7.816178E-3
1.454500E-7	7.689420E-3
1.455000E-7	7.540393E-3
1.455500E-7	7.382802E-3
1.456000E-7	7.218360E-3
1.456500E-7	7.047065E-3
1.457000E-7	6.887761E-3
1.457500E-7	6.767855E-3
1.458000E-7	6.706189E-3
1.458500E-7	6.707902E-3
1.459000E-7	6.767855E-3
1.459500E-7	6.884336E-3
1.460000E-7	7.035075E-3
1.460500E-7	7.197805E-3
1.461000E-7	7.365674E-3
1.461500E-7	7.519839E-3
1.462000E-7	7.641459E-3
1.462500E-7	7.701412E-3
1.463000E-7	7.721967E-3
1.463500E-7	7.735671E-3
1.464000E-7	7.773355E-3
1.464500E-7	7.804188E-3
1.465000E-7	7.821318E-3
1.465500E-7	7.862428E-3
1.466000E-7	7.942937E-3
1.466500E-7	8.038861E-3
1.467000E-7	8.119370E-3
1.467500E-7	8.181036E-3
1.468000E-7	8.218721E-3
1.468500E-7	8.235850E-3
1.469000E-7	8.217008E-3
1.469500E-7	8.129648E-3
1.470000E-7	7.992612E-3
1.470500E-7	7.829882E-3
1.471000E-7	7.650023E-3
1.471500E-7	7.471877E-3
1.472000E-7	7.319424E-3
1.472500E-7	7.216647E-3
1.473000E-7	7.160120E-3
1.473500E-7	7.148129E-3
1.474000E-7	7.144703E-3
1.474500E-7	7.160120E-3
1.475000E-7	7.201230E-3
1.475500E-7	7.209795E-3
1.476000E-7	7.175536E-3
1.476500E-7	7.144703E-3
1.477000E-7	7.101879E-3
1.477500E-7	6.999102E-3
1.478000E-7	6.882622E-3
1.478500E-7	6.831233E-3
1.479000E-7	6.838085E-3
1.479500E-7	6.862066E-3
1.480000E-7	6.923733E-3
1.480500E-7	7.038500E-3
1.481000E-7	7.196091E-3
1.481500E-7	7.369099E-3
1.482000E-7	7.554097E-3
1.482500E-7	7.737383E-3
1.483000E-7	7.912103E-3
1.483500E-7	8.057704E-3
1.484000E-7	8.157055E-3
1.484500E-7	8.203305E-3
1.485000E-7	8.199879E-3
1.485500E-7	8.150203E-3
1.486000E-7	8.061130E-3
1.486500E-7	7.958353E-3
1.487000E-7	7.865854E-3
1.487500E-7	7.788772E-3
1.488000E-7	7.742522E-3
1.488500E-7	7.730531E-3
1.489000E-7	7.737383E-3
1.489500E-7	7.773355E-3
1.490000E-7	7.831595E-3
1.490500E-7	7.900113E-3
1.491000E-7	7.951501E-3
1.491500E-7	7.968631E-3
1.492000E-7	7.978908E-3
1.492500E-7	8.008028E-3
1.493000E-7	8.025158E-3
1.493500E-7	8.008028E-3
1.494000E-7	7.984047E-3
1.494500E-7	7.975483E-3
1.495000E-7	7.958353E-3
1.495500E-7	7.924094E-3
1.496000E-7	7.905252E-3
1.496500E-7	7.865854E-3
1.497000E-7	7.804188E-3
1.497500E-7	7.781920E-3
1.498000E-7	7.824743E-3
1.498500E-7	7.852151E-3
1.499000E-7	7.819605E-3
1.499500E-7	7.790485E-3
1.500000E-7	7.799049E-3
1.500500E-7	7.817892E-3
1.501000E-7	7.831596E-3
1.501500E-7	7.840160E-3
1.502000E-7	7.817892E-3
1.502500E-7	7.792198E-3
1.503000E-7	7.795623E-3
1.503500E-7	7.799049E-3
1.504000E-7	7.799049E-3
1.504500E-7	7.819604E-3
1.505000E-7	7.865853E-3
1.505500E-7	7.891547E-3
1.506000E-7	7.898399E-3
1.506500E-7	7.918954E-3
1.507000E-7	7.946361E-3
1.507500E-7	7.966917E-3
1.508000E-7	7.972056E-3
1.508500E-7	7.944649E-3
1.509000E-7	7.879557E-3
1.509500E-7	7.807613E-3
1.510000E-7	7.742521E-3
1.510500E-7	7.646596E-3
1.511000E-7	7.528403E-3
1.511500E-7	7.425626E-3
1.512000E-7	7.357108E-3
1.512500E-7	7.312572E-3
1.513000E-7	7.285165E-3
1.513500E-7	7.288591E-3
1.514000E-7	7.307433E-3
1.514500E-7	7.338266E-3
1.515000E-7	7.408497E-3
1.515500E-7	7.494145E-3
1.516000E-7	7.555811E-3
1.516500E-7	7.576366E-3
1.517000E-7	7.595208E-3
1.517500E-7	7.631180E-3
1.518000E-7	7.668865E-3
1.518500E-7	7.677429E-3
1.519000E-7	7.653448E-3
1.519500E-7	7.614050E-3
1.520000E-7	7.578078E-3
1.520500E-7	7.531828E-3
1.521000E-7	7.480440E-3
1.521500E-7	7.461597E-3
1.522000E-7	7.471875E-3
1.522500E-7	7.494144E-3
1.523000E-7	7.495857E-3
1.523500E-7	7.482154E-3
1.524000E-7	7.446182E-3
1.524500E-7	7.393081E-3
1.525000E-7	7.353683E-3
1.525500E-7	7.348544E-3
1.526000E-7	7.374239E-3
1.526500E-7	7.439331E-3
1.527000E-7	7.543821E-3
1.527500E-7	7.662014E-3
1.528000E-7	7.769929E-3
1.528500E-7	7.882984E-3
1.529000E-7	7.997751E-3
1.529500E-7	8.085111E-3
1.530000E-7	8.165620E-3
1.530500E-7	8.228999E-3
1.531000E-7	8.242702E-3
1.531500E-7	8.222147E-3
1.532000E-7	8.222147E-3
1.532500E-7	8.222147E-3
1.533000E-7	8.196453E-3
1.533500E-7	8.175898E-3
1.534000E-7	8.179324E-3
1.534500E-7	8.186176E-3
1.535000E-7	8.205018E-3
1.535500E-7	8.246129E-3
1.536000E-7	8.297517E-3
1.536500E-7	8.343767E-3
1.537000E-7	8.376312E-3
1.537500E-7	8.374599E-3
1.538000E-7	8.331775E-3
1.538500E-7	8.275247E-3
1.539000E-7	8.217007E-3
1.539500E-7	8.110804E-3
1.540000E-7	7.989185E-3
1.540500E-7	7.912102E-3
1.541000E-7	7.889833E-3
1.541500E-7	7.881269E-3
1.542000E-7	7.894972E-3
1.542500E-7	7.942935E-3
1.543000E-7	8.002888E-3
1.543500E-7	8.061128E-3
1.544000E-7	8.121082E-3
1.544500E-7	8.169044E-3
1.545000E-7	8.201591E-3
1.545500E-7	8.223859E-3
1.546000E-7	8.237563E-3
1.546500E-7	8.232424E-3
1.547000E-7	8.215295E-3
1.547500E-7	8.201591E-3
1.548000E-7	8.189601E-3
1.548500E-7	8.143351E-3
1.549000E-7	8.061130E-3
1.549500E-7	7.965205E-3
1.550000E-7	7.862428E-3
1.550500E-7	7.747660E-3
1.551000E-7	7.627754E-3
1.551500E-7	7.512986E-3
1.552000E-7	7.387941E-3
1.552500E-7	7.266322E-3
1.553000E-7	7.184100E-3
1.553500E-7	7.158406E-3
1.554000E-7	7.154981E-3
1.554500E-7	7.168684E-3
1.555000E-7	7.238915E-3
1.555500E-7	7.351970E-3
1.556000E-7	7.480441E-3
1.556500E-7	7.626041E-3
1.557000E-7	7.795623E-3
1.557500E-7	7.987473E-3
1.558000E-7	8.181036E-3
1.558500E-7	8.340340E-3
1.559000E-7	8.432839E-3
1.559500E-7	8.472237E-3
1.560000E-7	8.449968E-3
1.560500E-7	8.348904E-3
1.561000E-7	8.205017E-3
1.561500E-7	8.081685E-3
1.562000E-7	7.958353E-3
1.562500E-7	7.792197E-3
1.563000E-7	7.632893E-3
1.563500E-7	7.555811E-3
1.564000E-7	7.531830E-3
1.564500E-7	7.538682E-3
1.565000E-7	7.596922E-3
1.565500E-7	7.701412E-3
1.566000E-7	7.799049E-3
1.566500E-7	7.872706E-3
1.567000E-7	7.939511E-3
1.567500E-7	7.992612E-3
1.568000E-7	7.994324E-3
1.568500E-7	7.961778E-3
1.569000E-7	7.915529E-3
1.569500E-7	7.850437E-3
1.570000E-7	7.773354E-3
1.570500E-7	7.713401E-3
1.571000E-7	7.685994E-3
1.571500E-7	7.704837E-3
1.572000E-7	7.780206E-3
1.572500E-7	7.881271E-3
1.573000E-7	7.977196E-3
1.573500E-7	8.047427E-3
1.574000E-7	8.081686E-3
1.574500E-7	8.090250E-3
1.575000E-7	8.098815E-3
1.575500E-7	8.088537E-3
1.576000E-7	8.002890E-3
1.576500E-7	7.888122E-3
1.577000E-7	7.793910E-3
1.577500E-7	7.679142E-3
1.578000E-7	7.533542E-3
1.578500E-7	7.429052E-3
1.579000E-7	7.375950E-3
1.579500E-7	7.307432E-3
1.580000E-7	7.213220E-3
1.580500E-7	7.149841E-3
1.581000E-7	7.096740E-3
1.581500E-7	7.028222E-3
1.582000E-7	6.988824E-3
1.582500E-7	7.014518E-3
1.583000E-7	7.059055E-3
1.583500E-7	7.108730E-3
1.584000E-7	7.172109E-3
1.584500E-7	7.271460E-3
1.585000E-7	7.399931E-3
1.585500E-7	7.543819E-3
1.586000E-7	7.706549E-3
1.586500E-7	7.884696E-3
1.587000E-7	8.057704E-3
1.587500E-7	8.199878E-3
1.588000E-7	8.309507E-3
1.588500E-7	8.415710E-3
1.589000E-7	8.506496E-3
1.589500E-7	8.542468E-3
1.590000E-7	8.518486E-3
1.590500E-7	8.451682E-3
1.591000E-7	8.336914E-3
1.591500E-7	8.174184E-3
1.592000E-7	8.001177E-3
1.592500E-7	7.831595E-3
1.593000E-7	7.650023E-3
1.593500E-7	7.473590E-3
1.594000E-7	7.322850E-3
1.594500E-7	7.208083E-3
1.595000E-7	7.146417E-3
1.595500E-7	7.173824E-3
1.596000E-7	7.298869E-3
1.596500E-7	7.468451E-3
1.597000E-7	7.658588E-3
1.597500E-7	7.853864E-3
1.598000E-7	8.044001E-3
1.598500E-7	8.208444E-3
1.599000E-7	8.324924E-3
1.599500E-7	8.408858E-3
1.600000E-7	8.461960E-3
1.600500E-7	8.451682E-3
1.601000E-7	8.359183E-3
1.601500E-7	8.235851E-3
1.602000E-7	8.124509E-3
1.602500E-7	8.016594E-3
1.603000E-7	7.912104E-3
1.603500E-7	7.840160E-3
1.604000E-7	7.800762E-3
1.604500E-7	7.776781E-3
1.605000E-7	7.781919E-3
1.605500E-7	7.817891E-3
1.606000E-7	7.850437E-3
1.606500E-7	7.867567E-3
1.607000E-7	7.879557E-3
1.607500E-7	7.888122E-3
1.608000E-7	7.872706E-3
1.608500E-7	7.835021E-3
1.609000E-7	7.800762E-3
1.609500E-7	7.776781E-3
1.610000E-7	7.744235E-3
1.610500E-7	7.703124E-3
1.611000E-7	7.696272E-3
1.611500E-7	7.735670E-3
1.612000E-7	7.763077E-3
1.612500E-7	7.793910E-3
1.613000E-7	7.843585E-3
1.613500E-7	7.865853E-3
1.614000E-7	7.809326E-3
1.614500E-7	7.721965E-3
1.615000E-7	7.626040E-3
1.615500E-7	7.492431E-3
1.616000E-7	7.334840E-3
1.616500E-7	7.172110E-3
1.617000E-7	6.993963E-3
1.617500E-7	6.814104E-3
1.618000E-7	6.695911E-3
1.618500E-7	6.613690E-3
1.619000E-7	6.550311E-3
1.619500E-7	6.548598E-3
1.620000E-7	6.632533E-3
1.620500E-7	6.737022E-3
1.621000E-7	6.848364E-3
1.621500E-7	6.993964E-3
1.622000E-7	7.153268E-3
1.622500E-7	7.297156E-3
1.623000E-7	7.430765E-3
1.623500E-7	7.562662E-3
1.624000E-7	7.680855E-3
1.624500E-7	7.781919E-3
1.625000E-7	7.867566E-3
1.625500E-7	7.949788E-3
1.626000E-7	8.050852E-3
1.626500E-7	8.179323E-3
1.627000E-7	8.285526E-3
1.627500E-7	8.371174E-3
1.628000E-7	8.461960E-3
1.628500E-7	8.547608E-3
1.629000E-7	8.590432E-3
1.629500E-7	8.612700E-3
1.630000E-7	8.598996E-3
1.630500E-7	8.508210E-3
1.631000E-7	8.350618E-3
1.631500E-7	8.169046E-3
1.632000E-7	7.984047E-3
1.632500E-7	7.773354E-3
1.633000E-7	7.562661E-3
1.633500E-7	7.393079E-3
1.634000E-7	7.257756E-3
1.634500E-7	7.144701E-3
1.635000E-7	7.101877E-3
1.635500E-7	7.137849E-3
1.636000E-7	7.197803E-3
1.636500E-7	7.259469E-3
1.637000E-7	7.346829E-3
1.637500E-7	7.449607E-3
1.638000E-7	7.528403E-3
1.638500E-7	7.578078E-3
1.639000E-7	7.624328E-3
1.639500E-7	7.643171E-3
1.640000E-7	7.607199E-3
1.640500E-7	7.536968E-3
1.641000E-7	7.499283E-3
1.641500E-7	7.497570E-3
1.642000E-7	7.504422E-3
1.642500E-7	7.531829E-3
1.643000E-7	7.593495E-3
1.643500E-7	7.679142E-3
1.644000E-7	7.780206E-3
1.644500E-7	7.905251E-3
1.645000E-7	8.025157E-3
1.645500E-7	8.115943E-3
1.646000E-7	8.186174E-3
1.646500E-7	8.232424E-3
1.647000E-7	8.254693E-3
1.647500E-7	8.263258E-3
1.648000E-7	8.275248E-3
1.648500E-7	8.256406E-3
1.649000E-7	8.225573E-3
1.649500E-7	8.223860E-3
1.650000E-7	8.228999E-3
1.650500E-7	8.235850E-3
1.651000E-7	8.259831E-3
1.651500E-7	8.283812E-3
1.652000E-7	8.282099E-3
1.652500E-7	8.273535E-3
1.653000E-7	8.270109E-3
1.653500E-7	8.247841E-3
1.654000E-7	8.199878E-3
1.654500E-7	8.124509E-3
1.655000E-7	8.035436E-3
1.655500E-7	7.942937E-3
1.656000E-7	7.833308E-3
1.656500E-7	7.708263E-3
1.657000E-7	7.614051E-3
1.657500E-7	7.576366E-3
1.658000E-7	7.545532E-3
1.658500E-7	7.500996E-3
1.659000E-7	7.500995E-3
1.659500E-7	7.542106E-3
1.660000E-7	7.581504E-3
1.660500E-7	7.596920E-3
1.661000E-7	7.641457E-3
1.661500E-7	7.711688E-3
1.662000E-7	7.771641E-3
1.662500E-7	7.792196E-3
1.663000E-7	7.804187E-3
1.663500E-7	7.814465E-3
1.664000E-7	7.800762E-3
1.664500E-7	7.775067E-3
1.665000E-7	7.759651E-3
1.665500E-7	7.751086E-3
1.666000E-7	7.709976E-3
1.666500E-7	7.670578E-3
1.667000E-7	7.662013E-3
1.667500E-7	7.663726E-3
1.668000E-7	7.650022E-3
1.668500E-7	7.651735E-3
1.669000E-7	7.689420E-3
1.669500E-7	7.742521E-3
1.670000E-7	7.787058E-3
1.670500E-7	7.831595E-3
1.671000E-7	7.870992E-3
1.671500E-7	7.877844E-3
1.672000E-7	7.853863E-3
1.672500E-7	7.799049E-3
1.673000E-7	7.701411E-3
1.673500E-7	7.574653E-3
1.674000E-7	7.466737E-3
1.674500E-7	7.362247E-3
1.675000E-7	7.237202E-3
1.675500E-7	7.086463E-3
1.676000E-7	6.942575E-3
1.676500E-7	6.810678E-3
1.677000E-7	6.726743E-3
1.677500E-7	6.719892E-3
1.678000E-7	6.776419E-3
1.678500E-7	6.882622E-3
1.679000E-7	7.047065E-3
1.679500E-7	7.247480E-3
1.680000E-7	7.470163E-3
1.680500E-7	7.689420E-3
1.681000E-7	7.881270E-3
1.681500E-7	8.035435E-3
1.682000E-7	8.169045E-3
1.682500E-7	8.276961E-3
1.683000E-7	8.323210E-3
1.683500E-7	8.314645E-3
1.684000E-7	8.270109E-3
1.684500E-7	8.193026E-3
1.685000E-7	8.085110E-3
1.685500E-7	7.951500E-3
1.686000E-7	7.797335E-3
1.686500E-7	7.663725E-3
1.687000E-7	7.578078E-3
1.687500E-7	7.521551E-3
1.688000E-7	7.466737E-3
1.688500E-7	7.453033E-3
1.689000E-7	7.470163E-3
1.689500E-7	7.497570E-3
1.690000E-7	7.526690E-3
1.690500E-7	7.564375E-3
1.691000E-7	7.564375E-3
1.691500E-7	7.547246E-3
1.692000E-7	7.533542E-3
1.692500E-7	7.502709E-3
1.693000E-7	7.451320E-3
1.693500E-7	7.406784E-3
1.694000E-7	7.377663E-3
1.694500E-7	7.351969E-3
1.695000E-7	7.338265E-3
1.695500E-7	7.348543E-3
1.696000E-7	7.387941E-3
1.696500E-7	7.482153E-3
1.697000E-7	7.605485E-3
1.697500E-7	7.706549E-3
1.698000E-7	7.792197E-3
1.698500E-7	7.893260E-3
1.699000E-7	7.996037E-3
1.699500E-7	8.079972E-3
1.700000E-7	8.143351E-3
1.700500E-7	8.177610E-3
1.701000E-7	8.199878E-3
1.701500E-7	8.206730E-3
1.702000E-7	8.155341E-3
1.702500E-7	8.054277E-3
1.703000E-7	7.972056E-3
1.703500E-7	7.891548E-3
1.704000E-7	7.773354E-3
1.704500E-7	7.656874E-3
1.705000E-7	7.569514E-3
1.705500E-7	7.475302E-3
1.706000E-7	7.365674E-3
1.706500E-7	7.273175E-3
1.707000E-7	7.201231E-3
1.707500E-7	7.158407E-3
1.708000E-7	7.156694E-3
1.708500E-7	7.163546E-3
1.709000E-7	7.165259E-3
1.709500E-7	7.216647E-3
1.710000E-7	7.331415E-3
1.710500E-7	7.453034E-3
1.711000E-7	7.583217E-3
1.711500E-7	7.773354E-3
1.712000E-7	7.966917E-3
1.712500E-7	8.131360E-3
1.713000E-7	8.299229E-3
1.713500E-7	8.465385E-3
1.714000E-7	8.568162E-3
1.714500E-7	8.643531E-3
1.715000E-7	8.708623E-3
1.715500E-7	8.708623E-3
1.716000E-7	8.653809E-3
1.716500E-7	8.605847E-3
1.717000E-7	8.566449E-3
1.717500E-7	8.463672E-3
1.718000E-7	8.336914E-3
1.718500E-7	8.246128E-3
1.719000E-7	8.157055E-3
1.719500E-7	8.038861E-3
1.720000E-7	7.894973E-3
1.720500E-7	7.769928E-3
1.721000E-7	7.660299E-3
1.721500E-7	7.536967E-3
1.722000E-7	7.379376E-3
1.722500E-7	7.232062E-3
1.723000E-7	7.134424E-3
1.723500E-7	7.069332E-3
1.724000E-7	7.023083E-3
1.724500E-7	7.040212E-3
1.725000E-7	7.151554E-3
1.725500E-7	7.302294E-3
1.726000E-7	7.435904E-3
1.726500E-7	7.552384E-3
1.727000E-7	7.674004E-3
1.727500E-7	7.759651E-3
1.728000E-7	7.783632E-3
1.728500E-7	7.781919E-3
1.729000E-7	7.752799E-3
1.729500E-7	7.684281E-3
1.730000E-7	7.605486E-3
1.730500E-7	7.540394E-3
1.731000E-7	7.480440E-3
1.731500E-7	7.439330E-3
1.732000E-7	7.429052E-3
1.732500E-7	7.449607E-3
1.733000E-7	7.483866E-3
1.733500E-7	7.540394E-3
1.734000E-7	7.631180E-3
1.734500E-7	7.720253E-3
1.735000E-7	7.785345E-3
1.735500E-7	7.836733E-3
1.736000E-7	7.865853E-3
1.736500E-7	7.864140E-3
1.737000E-7	7.870992E-3
1.737500E-7	7.867566E-3
1.738000E-7	7.843585E-3
1.738500E-7	7.821317E-3
1.739000E-7	7.838447E-3
1.739500E-7	7.891549E-3
1.740000E-7	7.963493E-3
1.740500E-7	8.055992E-3
1.741000E-7	8.148491E-3
1.741500E-7	8.218722E-3
1.742000E-7	8.270111E-3
1.742500E-7	8.292379E-3
1.743000E-7	8.263259E-3
1.743500E-7	8.205018E-3
1.744000E-7	8.143352E-3
1.744500E-7	8.076547E-3
1.745000E-7	8.008029E-3
1.745500E-7	7.939511E-3
1.746000E-7	7.852151E-3
1.746500E-7	7.768216E-3
1.747000E-7	7.740809E-3
1.747500E-7	7.742522E-3
1.748000E-7	7.737383E-3
1.748500E-7	7.761364E-3
1.749000E-7	7.835021E-3
1.749500E-7	7.924094E-3
1.750000E-7	7.996038E-3
1.750500E-7	8.079973E-3
1.751000E-7	8.146778E-3
1.751500E-7	8.175898E-3
1.752000E-7	8.194740E-3
1.752500E-7	8.196453E-3
1.753000E-7	8.133074E-3
1.753500E-7	8.032010E-3
1.754000E-7	7.944650E-3
1.754500E-7	7.860716E-3
1.755000E-7	7.766503E-3
1.755500E-7	7.703124E-3
1.756000E-7	7.680856E-3
1.756500E-7	7.656874E-3
1.757000E-7	7.629467E-3
1.757500E-7	7.632893E-3
1.758000E-7	7.670577E-3
1.758500E-7	7.730530E-3
1.759000E-7	7.799048E-3
1.759500E-7	7.843585E-3
1.760000E-7	7.884696E-3
1.760500E-7	7.939510E-3
1.761000E-7	7.999464E-3
1.761500E-7	8.057704E-3
1.762000E-7	8.112519E-3
1.762500E-7	8.139926E-3
1.763000E-7	8.143352E-3
1.763500E-7	8.170759E-3
1.764000E-7	8.218721E-3
1.764500E-7	8.232425E-3
1.765000E-7	8.227286E-3
1.765500E-7	8.244415E-3
1.766000E-7	8.254693E-3
1.766500E-7	8.254693E-3
1.767000E-7	8.259831E-3
1.767500E-7	8.237563E-3
1.768000E-7	8.194740E-3
1.768500E-7	8.148490E-3
1.769000E-7	8.057704E-3
1.769500E-7	7.910391E-3
1.770000E-7	7.778494E-3
1.770500E-7	7.682570E-3
1.771000E-7	7.566089E-3
1.771500E-7	7.441044E-3
1.772000E-7	7.377665E-3
1.772500E-7	7.355397E-3
1.773000E-7	7.357110E-3
1.773500E-7	7.406786E-3
1.774000E-7	7.483868E-3
1.774500E-7	7.567802E-3
1.775000E-7	7.706551E-3
1.775500E-7	7.870994E-3
1.776000E-7	7.994325E-3
1.776500E-7	8.102241E-3
1.777000E-7	8.208443E-3
1.777500E-7	8.275248E-3
1.778000E-7	8.276961E-3
1.778500E-7	8.247841E-3
1.779000E-7	8.181036E-3
1.779500E-7	8.073120E-3
1.780000E-7	7.963491E-3
1.780500E-7	7.847011E-3
1.781000E-7	7.708262E-3
1.781500E-7	7.579791E-3
1.782000E-7	7.494144E-3
1.782500E-7	7.418774E-3
1.783000E-7	7.369098E-3
1.783500E-7	7.348543E-3
1.784000E-7	7.336553E-3
1.784500E-7	7.336553E-3
1.785000E-7	7.375951E-3
1.785500E-7	7.430765E-3
1.786000E-7	7.463311E-3
1.786500E-7	7.507848E-3
1.787000E-7	7.593495E-3
1.787500E-7	7.663726E-3
1.788000E-7	7.684281E-3
1.788500E-7	7.697984E-3
1.789000E-7	7.737382E-3
1.789500E-7	7.768215E-3
1.790000E-7	7.759650E-3
1.790500E-7	7.747660E-3
1.791000E-7	7.763076E-3
1.791500E-7	7.799048E-3
1.792000E-7	7.816178E-3
1.792500E-7	7.835020E-3
1.793000E-7	7.874418E-3
1.793500E-7	7.918955E-3
1.794000E-7	7.954927E-3
1.794500E-7	8.016593E-3
1.795000E-7	8.122795E-3
1.795500E-7	8.240989E-3
1.796000E-7	8.330062E-3
1.796500E-7	8.381450E-3
1.797000E-7	8.408857E-3
1.797500E-7	8.439690E-3
1.798000E-7	8.472236E-3
1.798500E-7	8.477375E-3
1.799000E-7	8.434552E-3
1.799500E-7	8.371173E-3
1.800000E-7	8.285525E-3
1.800500E-7	8.143351E-3
1.801000E-7	7.960065E-3
1.801500E-7	7.776780E-3
1.802000E-7	7.595208E-3
1.802500E-7	7.403358E-3
1.803000E-7	7.244053E-3
1.803500E-7	7.163545E-3
1.804000E-7	7.168684E-3
1.804500E-7	7.244054E-3
1.805000E-7	7.391367E-3
1.805500E-7	7.614051E-3
1.806000E-7	7.893261E-3
1.806500E-7	8.169046E-3
1.807000E-7	8.388303E-3
1.807500E-7	8.545895E-3
1.808000E-7	8.641820E-3
1.808500E-7	8.643532E-3
1.809000E-7	8.564737E-3
1.809500E-7	8.427701E-3
1.810000E-7	8.251267E-3
1.810500E-7	8.054278E-3
1.811000E-7	7.869280E-3
1.811500E-7	7.696272E-3
1.812000E-7	7.540394E-3
1.812500E-7	7.449607E-3
1.813000E-7	7.417061E-3
1.813500E-7	7.425626E-3
1.814000E-7	7.468450E-3
1.814500E-7	7.523264E-3
1.815000E-7	7.566088E-3
1.815500E-7	7.595208E-3
1.816000E-7	7.605486E-3
1.816500E-7	7.584931E-3
1.817000E-7	7.548959E-3
1.817500E-7	7.530117E-3
1.818000E-7	7.511275E-3
1.818500E-7	7.499284E-3
1.819000E-7	7.528405E-3
1.819500E-7	7.578080E-3
1.820000E-7	7.617478E-3
1.820500E-7	7.680857E-3
1.821000E-7	7.797337E-3
1.821500E-7	7.913817E-3
1.822000E-7	8.016594E-3
1.822500E-7	8.139926E-3
1.823000E-7	8.256407E-3
1.823500E-7	8.307795E-3
1.824000E-7	8.307795E-3
1.824500E-7	8.290666E-3
1.825000E-7	8.222148E-3
1.825500E-7	8.105667E-3
1.826000E-7	7.994326E-3
1.826500E-7	7.901826E-3
1.827000E-7	7.807614E-3
1.827500E-7	7.728819E-3
1.828000E-7	7.701411E-3
1.828500E-7	7.704837E-3
1.829000E-7	7.704837E-3
1.829500E-7	7.720253E-3
1.830000E-7	7.766503E-3
1.830500E-7	7.802475E-3
1.831000E-7	7.833307E-3
1.831500E-7	7.884696E-3
1.832000E-7	7.930945E-3
1.832500E-7	7.920668E-3
1.833000E-7	7.877844E-3
1.833500E-7	7.853863E-3
1.834000E-7	7.833307E-3
1.834500E-7	7.788771E-3
1.835000E-7	7.773354E-3
1.835500E-7	7.804187E-3
1.836000E-7	7.845298E-3
1.836500E-7	7.891548E-3
1.837000E-7	7.961779E-3
1.837500E-7	8.040574E-3
1.838000E-7	8.100527E-3
1.838500E-7	8.138212E-3
1.839000E-7	8.160480E-3
1.839500E-7	8.179323E-3
1.840000E-7	8.182749E-3
1.840500E-7	8.139925E-3
1.841000E-7	8.044000E-3
1.841500E-7	7.917242E-3
1.842000E-7	7.790484E-3
1.842500E-7	7.656874E-3
1.843000E-7	7.523264E-3
1.843500E-7	7.410209E-3
1.844000E-7	7.334840E-3
1.844500E-7	7.283452E-3
1.845000E-7	7.244054E-3
1.845500E-7	7.225212E-3
1.846000E-7	7.256045E-3
1.846500E-7	7.317711E-3
1.847000E-7	7.375951E-3
1.847500E-7	7.429053E-3
1.848000E-7	7.489006E-3
1.848500E-7	7.550672E-3
1.849000E-7	7.605487E-3
1.849500E-7	7.672291E-3
1.850000E-7	7.728819E-3
1.850500E-7	7.752800E-3
1.851000E-7	7.764790E-3
1.851500E-7	7.793910E-3
1.852000E-7	7.823030E-3
1.852500E-7	7.855576E-3
1.853000E-7	7.934371E-3
1.853500E-7	8.067981E-3
1.854000E-7	8.213582E-3
1.854500E-7	8.347191E-3
1.855000E-7	8.463672E-3
1.855500E-7	8.563023E-3
1.856000E-7	8.636680E-3
1.856500E-7	8.672652E-3
1.857000E-7	8.664087E-3
1.857500E-7	8.622976E-3
1.858000E-7	8.575014E-3
1.858500E-7	8.497931E-3
1.859000E-7	8.383164E-3
1.859500E-7	8.234138E-3
1.860000E-7	8.064556E-3
1.860500E-7	7.891548E-3
1.861000E-7	7.756225E-3
1.861500E-7	7.644883E-3
1.862000E-7	7.507847E-3
1.862500E-7	7.351969E-3
1.863000E-7	7.232063E-3
1.863500E-7	7.166971E-3
1.864000E-7	7.124147E-3
1.864500E-7	7.108731E-3
1.865000E-7	7.132712E-3
1.865500E-7	7.202943E-3
1.866000E-7	7.307433E-3
1.866500E-7	7.422201E-3
1.867000E-7	7.533542E-3
1.867500E-7	7.639745E-3
1.868000E-7	7.706550E-3
1.868500E-7	7.728818E-3
1.869000E-7	7.747661E-3
1.869500E-7	7.771642E-3
1.870000E-7	7.761364E-3
1.870500E-7	7.727105E-3
1.871000E-7	7.704837E-3
1.871500E-7	7.679143E-3
1.872000E-7	7.634606E-3
1.872500E-7	7.571227E-3
1.873000E-7	7.514700E-3
1.873500E-7	7.471876E-3
1.874000E-7	7.468451E-3
1.874500E-7	7.494145E-3
1.875000E-7	7.502710E-3
1.875500E-7	7.519839E-3
1.876000E-7	7.564376E-3
1.876500E-7	7.626042E-3
1.877000E-7	7.682569E-3
1.877500E-7	7.735671E-3
1.878000E-7	7.795624E-3
1.878500E-7	7.847012E-3
1.879000E-7	7.867567E-3
1.879500E-7	7.874419E-3
1.880000E-7	7.882983E-3
1.880500E-7	7.876131E-3
1.881000E-7	7.821317E-3
1.881500E-7	7.769929E-3
1.882000E-7	7.739096E-3
1.882500E-7	7.701411E-3
1.883000E-7	7.653449E-3
1.883500E-7	7.665440E-3
1.884000E-7	7.716828E-3
1.884500E-7	7.735671E-3
1.885000E-7	7.728819E-3
1.885500E-7	7.756226E-3
1.886000E-7	7.797337E-3
1.886500E-7	7.831596E-3
1.887000E-7	7.882984E-3
1.887500E-7	7.937798E-3
1.888000E-7	7.954927E-3
1.888500E-7	7.961779E-3
1.889000E-7	7.985760E-3
1.889500E-7	7.996038E-3
1.890000E-7	7.954927E-3
1.890500E-7	7.884696E-3
1.891000E-7	7.805901E-3
1.891500E-7	7.745948E-3
1.892000E-7	7.677430E-3
1.892500E-7	7.572941E-3
1.893000E-7	7.442757E-3
1.893500E-7	7.315999E-3
1.894000E-7	7.190953E-3
1.894500E-7	7.062482E-3
1.895000E-7	6.976835E-3
1.895500E-7	6.923733E-3
1.896000E-7	6.870632E-3
1.896500E-7	6.826095E-3
1.897000E-7	6.810679E-3
1.897500E-7	6.820956E-3
1.898000E-7	6.856928E-3
1.898500E-7	6.930585E-3
1.899000E-7	7.045353E-3
1.899500E-7	7.168685E-3
1.900000E-7	7.304008E-3
1.900500E-7	7.470164E-3
1.901000E-7	7.650023E-3
1.901500E-7	7.819605E-3
1.902000E-7	7.951502E-3
1.902500E-7	8.035436E-3
1.903000E-7	8.069695E-3
1.903500E-7	8.032010E-3
1.904000E-7	7.910390E-3
1.904500E-7	7.745947E-3
1.905000E-7	7.567801E-3
1.905500E-7	7.350256E-3
1.906000E-7	7.110444E-3
1.906500E-7	6.887761E-3
1.907000E-7	6.699336E-3
1.907500E-7	6.540032E-3
1.908000E-7	6.461237E-3
1.908500E-7	6.461237E-3
1.909000E-7	6.510912E-3
1.909500E-7	6.632532E-3
1.910000E-7	6.839798E-3
1.910500E-7	7.093315E-3
1.911000E-7	7.346831E-3
1.911500E-7	7.584931E-3
1.912000E-7	7.781920E-3
1.912500E-7	7.918955E-3
1.913000E-7	8.011455E-3
1.913500E-7	8.037149E-3
1.914000E-7	7.987473E-3
1.914500E-7	7.877845E-3
1.915000E-7	7.735670E-3
1.915500E-7	7.559236E-3
1.916000E-7	7.370812E-3
1.916500E-7	7.214934E-3
1.917000E-7	7.108731E-3
1.917500E-7	7.074472E-3
1.918000E-7	7.115583E-3
1.918500E-7	7.213221E-3
1.919000E-7	7.355395E-3
1.919500E-7	7.554097E-3
1.920000E-7	7.775067E-3
1.920500E-7	7.973769E-3
1.921000E-7	8.115944E-3
1.921500E-7	8.222146E-3
1.922000E-7	8.290664E-3
1.922500E-7	8.304368E-3
1.923000E-7	8.246128E-3
1.923500E-7	8.129647E-3
1.924000E-7	7.996037E-3
1.924500E-7	7.888122E-3
1.925000E-7	7.817891E-3
1.925500E-7	7.792197E-3
1.926000E-7	7.814466E-3
1.926500E-7	7.881271E-3
1.927000E-7	7.992613E-3
1.927500E-7	8.115945E-3
1.928000E-7	8.228999E-3
1.928500E-7	8.335202E-3
1.929000E-7	8.431127E-3
1.929500E-7	8.468811E-3
1.930000E-7	8.417423E-3
1.930500E-7	8.304368E-3
1.931000E-7	8.174184E-3
1.931500E-7	8.030296E-3
1.932000E-7	7.860714E-3
1.932500E-7	7.696271E-3
1.933000E-7	7.581504E-3
1.933500E-7	7.512986E-3
1.934000E-7	7.482153E-3
1.934500E-7	7.507847E-3
1.935000E-7	7.583217E-3
1.935500E-7	7.682568E-3
1.936000E-7	7.773354E-3
1.936500E-7	7.850437E-3
1.937000E-7	7.889834E-3
1.937500E-7	7.862427E-3
1.938000E-7	7.805900E-3
1.938500E-7	7.744234E-3
1.939000E-7	7.667152E-3
1.939500E-7	7.557524E-3
1.940000E-7	7.437617E-3
1.940500E-7	7.338267E-3
1.941000E-7	7.262897E-3
1.941500E-7	7.213222E-3
1.942000E-7	7.199518E-3
1.942500E-7	7.218361E-3
1.943000E-7	7.266323E-3
1.943500E-7	7.343405E-3
1.944000E-7	7.425627E-3
1.944500E-7	7.497570E-3
1.945000E-7	7.583218E-3
1.945500E-7	7.692846E-3
1.946000E-7	7.790484E-3
1.946500E-7	7.848724E-3
1.947000E-7	7.905252E-3
1.947500E-7	7.958353E-3
1.948000E-7	7.985760E-3
1.948500E-7	8.011455E-3
1.949000E-7	8.064556E-3
1.949500E-7	8.100528E-3
1.950000E-7	8.102241E-3
1.950500E-7	8.121083E-3
1.951000E-7	8.148490E-3
1.951500E-7	8.158768E-3
1.952000E-7	8.141638E-3
1.952500E-7	8.110805E-3
1.953000E-7	8.054278E-3
1.953500E-7	7.982334E-3
1.954000E-7	7.915529E-3
1.954500E-7	7.869280E-3
1.955000E-7	7.824744E-3
1.955500E-7	7.766504E-3
1.956000E-7	7.718541E-3
1.956500E-7	7.685995E-3
1.957000E-7	7.658588E-3
1.957500E-7	7.643172E-3
1.958000E-7	7.653450E-3
1.958500E-7	7.663727E-3
1.959000E-7	7.656875E-3
1.959500E-7	7.650023E-3
1.960000E-7	7.650023E-3
1.960500E-7	7.620902E-3
1.961000E-7	7.572940E-3
1.961500E-7	7.519838E-3
1.962000E-7	7.458172E-3
1.962500E-7	7.396506E-3
1.963000E-7	7.355395E-3
1.963500E-7	7.334840E-3
1.964000E-7	7.315998E-3
1.964500E-7	7.307433E-3
1.965000E-7	7.345118E-3
1.965500E-7	7.423914E-3
1.966000E-7	7.543820E-3
1.966500E-7	7.667153E-3
1.967000E-7	7.771642E-3
1.967500E-7	7.874419E-3
1.968000E-7	7.975483E-3
1.968500E-7	8.062843E-3
1.969000E-7	8.153629E-3
1.969500E-7	8.254693E-3
1.970000E-7	8.326636E-3
1.970500E-7	8.362608E-3
1.971000E-7	8.402005E-3
1.971500E-7	8.424274E-3
1.972000E-7	8.400292E-3
1.972500E-7	8.342052E-3
1.973000E-7	8.290663E-3
1.973500E-7	8.232423E-3
1.974000E-7	8.155340E-3
1.974500E-7	8.055989E-3
1.975000E-7	7.934370E-3
1.975500E-7	7.800761E-3
1.976000E-7	7.682567E-3
1.976500E-7	7.562661E-3
1.977000E-7	7.432477E-3
1.977500E-7	7.350256E-3
1.978000E-7	7.341691E-3
1.978500E-7	7.382802E-3
1.979000E-7	7.473588E-3
1.979500E-7	7.612337E-3
1.980000E-7	7.766502E-3
1.980500E-7	7.922381E-3
1.981000E-7	8.105666E-3
1.981500E-7	8.275248E-3
1.982000E-7	8.360896E-3
1.982500E-7	8.381451E-3
1.983000E-7	8.374599E-3
1.983500E-7	8.292378E-3
1.984000E-7	8.138213E-3
1.984500E-7	7.996038E-3
1.985000E-7	7.872706E-3
1.985500E-7	7.728819E-3
1.986000E-7	7.614051E-3
1.986500E-7	7.586644E-3
1.987000E-7	7.607199E-3
1.987500E-7	7.660300E-3
1.988000E-7	7.764789E-3
1.988500E-7	7.910390E-3
1.989000E-7	8.069694E-3
1.989500E-7	8.227285E-3
1.990000E-7	8.340339E-3
1.990500E-7	8.378024E-3
1.991000E-7	8.338627E-3
1.991500E-7	8.234137E-3
1.992000E-7	8.090249E-3
1.992500E-7	7.948075E-3
1.993000E-7	7.817891E-3
1.993500E-7	7.668864E-3
1.994000E-7	7.499283E-3
1.994500E-7	7.353682E-3
1.995000E-7	7.271461E-3
1.995500E-7	7.242340E-3
1.996000E-7	7.235489E-3
1.996500E-7	7.247479E-3
1.997000E-7	7.290303E-3
1.997500E-7	7.358821E-3
1.998000E-7	7.418774E-3
1.998500E-7	7.470163E-3
1.999000E-7	7.535255E-3
1.999500E-7	7.559236E-3
2.000000E-7	7.524977E-3
