Study Name	Tungsten_Kyocera
Sample Name	2024-02-05
Run Name	spot00
Operator	Angus+Samantha
Date	2/5/2024
Time	15:26
Sign	NEG
Grating Spacing	03.40um
Channel	3
Number Traces	10000
Files in Batch	1
Batch Number	37
dt	50.000001E-12
time stamp (ms)	4:04:58 PM
	
Time	Amplitude
0.000000E+0	-9.628481E-3
5.000000E-11	-9.683295E-3
1.000000E-10	-9.775795E-3
1.500000E-10	-9.854590E-3
2.000000E-10	-9.935099E-3
2.500000E-10	-1.003274E-2
3.000000E-10	-1.011325E-2
3.500000E-10	-1.015436E-2
4.000000E-10	-1.018176E-2
4.500000E-10	-1.020403E-2
5.000000E-10	-1.020917E-2
5.500000E-10	-1.018690E-2
6.000000E-10	-1.016806E-2
6.500000E-10	-1.016977E-2
7.000000E-10	-1.017662E-2
7.500000E-10	-1.017662E-2
8.000000E-10	-1.018176E-2
8.500000E-10	-1.020746E-2
9.000000E-10	-1.022973E-2
9.500000E-10	-1.023487E-2
1.000000E-9	-1.024172E-2
1.050000E-9	-1.025371E-2
1.100000E-9	-1.026570E-2
1.150000E-9	-1.026741E-2
1.200000E-9	-1.024000E-2
1.250000E-9	-1.019033E-2
1.300000E-9	-1.016635E-2
1.350000E-9	-1.016463E-2
1.400000E-9	-1.014922E-2
1.450000E-9	-1.013380E-2
1.500000E-9	-1.014750E-2
1.550000E-9	-1.015436E-2
1.600000E-9	-1.014579E-2
1.650000E-9	-1.015950E-2
1.700000E-9	-1.016121E-2
1.750000E-9	-1.010811E-2
1.800000E-9	-1.004987E-2
1.850000E-9	-1.001903E-2
1.900000E-9	-9.988200E-3
1.950000E-9	-9.950516E-3
2.000000E-9	-9.926534E-3
2.050000E-9	-9.897414E-3
2.100000E-9	-9.866581E-3
2.150000E-9	-9.852877E-3
2.200000E-9	-9.849451E-3
2.250000E-9	-9.849451E-3
2.300000E-9	-9.881998E-3
2.350000E-9	-9.935099E-3
2.400000E-9	-9.965932E-3
2.450000E-9	-9.986487E-3
2.500000E-9	-1.001389E-2
2.550000E-9	-1.002589E-2
2.600000E-9	-1.002589E-2
2.650000E-9	-1.004301E-2
2.700000E-9	-1.006700E-2
2.750000E-9	-1.008926E-2
2.800000E-9	-1.011838E-2
2.850000E-9	-1.015093E-2
2.900000E-9	-1.016977E-2
2.950000E-9	-1.018862E-2
3.000000E-9	-1.020917E-2
3.050000E-9	-1.021431E-2
3.100000E-9	-1.019375E-2
3.150000E-9	-1.015778E-2
3.200000E-9	-1.010297E-2
3.250000E-9	-1.003616E-2
3.300000E-9	-9.977923E-3
3.350000E-9	-9.938525E-3
3.400000E-9	-9.909405E-3
3.450000E-9	-9.880285E-3
3.500000E-9	-9.854590E-3
3.550000E-9	-9.851164E-3
3.600000E-9	-9.881998E-3
3.650000E-9	-9.936812E-3
3.700000E-9	-9.981349E-3
3.750000E-9	-1.001389E-2
3.800000E-9	-1.004473E-2
3.850000E-9	-1.007556E-2
3.900000E-9	-1.011667E-2
3.950000E-9	-1.017320E-2
4.000000E-9	-1.023487E-2
4.050000E-9	-1.027769E-2
4.100000E-9	-1.029653E-2
4.150000E-9	-1.032394E-2
4.200000E-9	-1.035991E-2
4.250000E-9	-1.038047E-2
4.300000E-9	-1.038389E-2
4.350000E-9	-1.038047E-2
4.400000E-9	-1.035991E-2
4.450000E-9	-1.033764E-2
4.500000E-9	-1.034278E-2
4.550000E-9	-1.035648E-2
4.600000E-9	-1.034792E-2
4.650000E-9	-1.033764E-2
4.700000E-9	-1.034449E-2
4.750000E-9	-1.034621E-2
4.800000E-9	-1.034449E-2
4.850000E-9	-1.037533E-2
4.900000E-9	-1.041644E-2
4.950000E-9	-1.042329E-2
5.000000E-9	-1.039417E-2
5.050000E-9	-1.035477E-2
5.100000E-9	-1.030681E-2
5.150000E-9	-1.023829E-2
5.200000E-9	-1.014922E-2
5.250000E-9	-1.006186E-2
5.300000E-9	-9.995052E-3
5.350000E-9	-9.941951E-3
5.400000E-9	-9.895701E-3
5.450000E-9	-9.863155E-3
5.500000E-9	-9.842600E-3
5.550000E-9	-9.816905E-3
5.600000E-9	-9.806628E-3
5.650000E-9	-9.828896E-3
5.700000E-9	-9.861442E-3
5.750000E-9	-9.893988E-3
5.800000E-9	-9.959080E-3
5.850000E-9	-1.005501E-2
5.900000E-9	-1.014065E-2
5.950000E-9	-1.020746E-2
6.000000E-9	-1.028283E-2
6.050000E-9	-1.037190E-2
6.100000E-9	-1.044898E-2
6.150000E-9	-1.050037E-2
6.200000E-9	-1.053463E-2
6.250000E-9	-1.056718E-2
6.300000E-9	-1.058259E-2
6.350000E-9	-1.056546E-2
6.400000E-9	-1.052607E-2
6.450000E-9	-1.049866E-2
6.500000E-9	-1.049523E-2
6.550000E-9	-1.048496E-2
6.600000E-9	-1.044727E-2
6.650000E-9	-1.040445E-2
6.700000E-9	-1.038903E-2
6.750000E-9	-1.039246E-2
6.800000E-9	-1.038732E-2
6.850000E-9	-1.037190E-2
6.900000E-9	-1.034963E-2
6.950000E-9	-1.030681E-2
7.000000E-9	-1.026056E-2
7.050000E-9	-1.023829E-2
7.100000E-9	-1.023658E-2
7.150000E-9	-1.025028E-2
7.200000E-9	-1.028625E-2
7.250000E-9	-1.032394E-2
7.300000E-9	-1.035306E-2
7.350000E-9	-1.037190E-2
7.400000E-9	-1.038389E-2
7.450000E-9	-1.039074E-2
7.500000E-9	-1.040445E-2
7.550000E-9	-1.042500E-2
7.600000E-9	-1.044385E-2
7.650000E-9	-1.045584E-2
7.700000E-9	-1.046440E-2
7.750000E-9	-1.046269E-2
7.800000E-9	-1.044727E-2
7.850000E-9	-1.041473E-2
7.900000E-9	-1.036334E-2
7.950000E-9	-1.030167E-2
8.000000E-9	-1.023315E-2
8.050000E-9	-1.015607E-2
8.100000E-9	-1.008241E-2
8.150000E-9	-1.002760E-2
8.200000E-9	-9.993339E-3
8.250000E-9	-9.977923E-3
8.300000E-9	-9.983062E-3
8.350000E-9	-9.996765E-3
8.400000E-9	-9.996765E-3
8.450000E-9	-9.995052E-3
8.500000E-9	-1.001903E-2
8.550000E-9	-1.006186E-2
8.600000E-9	-1.010811E-2
8.650000E-9	-1.015778E-2
8.700000E-9	-1.021774E-2
8.750000E-9	-1.025885E-2
8.800000E-9	-1.026741E-2
8.850000E-9	-1.025713E-2
8.900000E-9	-1.025199E-2
8.950000E-9	-1.025885E-2
9.000000E-9	-1.026399E-2
9.050000E-9	-1.026741E-2
9.100000E-9	-1.026399E-2
9.150000E-9	-1.026056E-2
9.200000E-9	-1.025199E-2
9.250000E-9	-1.024514E-2
9.300000E-9	-1.024686E-2
9.350000E-9	-1.025199E-2
9.400000E-9	-1.024686E-2
9.450000E-9	-1.024686E-2
9.500000E-9	-1.027084E-2
9.550000E-9	-1.030852E-2
9.600000E-9	-1.033422E-2
9.650000E-9	-1.037875E-2
9.700000E-9	-1.045241E-2
9.750000E-9	-1.051750E-2
9.800000E-9	-1.055861E-2
9.850000E-9	-1.059287E-2
9.900000E-9	-1.062370E-2
9.950000E-9	-1.062713E-2
1.000000E-8	-1.062028E-2
1.005000E-8	-1.062028E-2
1.010000E-8	-1.060658E-2
1.015000E-8	-1.056375E-2
1.020000E-8	-1.049523E-2
1.025000E-8	-1.040787E-2
1.030000E-8	-1.030852E-2
1.035000E-8	-1.020575E-2
1.040000E-8	-1.011667E-2
1.045000E-8	-1.005672E-2
1.050000E-8	-1.003959E-2
1.055000E-8	-1.004301E-2
1.060000E-8	-1.005329E-2
1.065000E-8	-1.008584E-2
1.070000E-8	-1.016121E-2
1.075000E-8	-1.024686E-2
1.080000E-8	-1.031709E-2
1.085000E-8	-1.039588E-2
1.090000E-8	-1.049352E-2
1.095000E-8	-1.057232E-2
1.100000E-8	-1.060829E-2
1.105000E-8	-1.061343E-2
1.110000E-8	-1.058773E-2
1.115000E-8	-1.053121E-2
1.120000E-8	-1.045412E-2
1.125000E-8	-1.036676E-2
1.130000E-8	-1.027426E-2
1.135000E-8	-1.019547E-2
1.140000E-8	-1.012181E-2
1.145000E-8	-1.005158E-2
1.150000E-8	-1.000533E-2
1.155000E-8	-9.991626E-3
1.160000E-8	-9.996765E-3
1.165000E-8	-1.003616E-2
1.170000E-8	-1.012695E-2
1.175000E-8	-1.025199E-2
1.180000E-8	-1.040959E-2
1.185000E-8	-1.062370E-2
1.190000E-8	-1.090463E-2
1.195000E-8	-1.123009E-2
1.200000E-8	-1.160009E-2
1.205000E-8	-1.201805E-2
1.210000E-8	-1.250110E-2
1.215000E-8	-1.305609E-2
1.220000E-8	-1.366248E-2
1.225000E-8	-1.428257E-2
1.230000E-8	-1.491978E-2
1.235000E-8	-1.557242E-2
1.240000E-8	-1.619764E-2
1.245000E-8	-1.676463E-2
1.250000E-8	-1.729222E-2
1.255000E-8	-1.776328E-2
1.260000E-8	-1.810758E-2
1.265000E-8	-1.829943E-2
1.270000E-8	-1.839365E-2
1.275000E-8	-1.840564E-2
1.280000E-8	-1.827545E-2
1.285000E-8	-1.799624E-2
1.290000E-8	-1.762111E-2
1.295000E-8	-1.716717E-2
1.300000E-8	-1.663102E-2
1.305000E-8	-1.604519E-2
1.310000E-8	-1.546793E-2
1.315000E-8	-1.490608E-2
1.320000E-8	-1.438706E-2
1.325000E-8	-1.399479E-2
1.330000E-8	-1.373956E-2
1.335000E-8	-1.357512E-2
1.340000E-8	-1.350146E-2
1.345000E-8	-1.355628E-2
1.350000E-8	-1.370873E-2
1.355000E-8	-1.392799E-2
1.360000E-8	-1.421576E-2
1.365000E-8	-1.456692E-2
1.370000E-8	-1.495404E-2
1.375000E-8	-1.534460E-2
1.380000E-8	-1.569746E-2
1.385000E-8	-1.600408E-2
1.390000E-8	-1.626616E-2
1.395000E-8	-1.647343E-2
1.400000E-8	-1.660361E-2
1.405000E-8	-1.666014E-2
1.410000E-8	-1.665158E-2
1.415000E-8	-1.656079E-2
1.420000E-8	-1.638607E-2
1.425000E-8	-1.616167E-2
1.430000E-8	-1.589103E-2
1.435000E-8	-1.554501E-2
1.440000E-8	-1.512705E-2
1.445000E-8	-1.466455E-2
1.450000E-8	-1.418322E-2
1.455000E-8	-1.369502E-2
1.460000E-8	-1.321369E-2
1.465000E-8	-1.277003E-2
1.470000E-8	-1.242402E-2
1.475000E-8	-1.219619E-2
1.480000E-8	-1.208999E-2
1.485000E-8	-1.211226E-2
1.490000E-8	-1.228355E-2
1.495000E-8	-1.256790E-2
1.500000E-8	-1.293790E-2
1.505000E-8	-1.339183E-2
1.510000E-8	-1.389201E-2
1.515000E-8	-1.437507E-2
1.520000E-8	-1.482043E-2
1.525000E-8	-1.521612E-2
1.530000E-8	-1.552959E-2
1.535000E-8	-1.573001E-2
1.540000E-8	-1.582251E-2
1.545000E-8	-1.581737E-2
1.550000E-8	-1.573343E-2
1.555000E-8	-1.557927E-2
1.560000E-8	-1.535316E-2
1.565000E-8	-1.506710E-2
1.570000E-8	-1.474678E-2
1.575000E-8	-1.439391E-2
1.580000E-8	-1.400507E-2
1.585000E-8	-1.362308E-2
1.590000E-8	-1.327364E-2
1.595000E-8	-1.293619E-2
1.600000E-8	-1.260045E-2
1.605000E-8	-1.229897E-2
1.610000E-8	-1.205573E-2
1.615000E-8	-1.188101E-2
1.620000E-8	-1.179536E-2
1.625000E-8	-1.181421E-2
1.630000E-8	-1.192383E-2
1.635000E-8	-1.210883E-2
1.640000E-8	-1.236064E-2
1.645000E-8	-1.264841E-2
1.650000E-8	-1.294818E-2
1.655000E-8	-1.326507E-2
1.660000E-8	-1.359053E-2
1.665000E-8	-1.387146E-2
1.670000E-8	-1.406502E-2
1.675000E-8	-1.417122E-2
1.680000E-8	-1.419007E-2
1.685000E-8	-1.410442E-2
1.690000E-8	-1.392113E-2
1.695000E-8	-1.366762E-2
1.700000E-8	-1.336100E-2
1.705000E-8	-1.301841E-2
1.710000E-8	-1.265355E-2
1.715000E-8	-1.228184E-2
1.720000E-8	-1.191013E-2
1.725000E-8	-1.155898E-2
1.730000E-8	-1.125750E-2
1.735000E-8	-1.101426E-2
1.740000E-8	-1.082926E-2
1.745000E-8	-1.072648E-2
1.750000E-8	-1.072819E-2
1.755000E-8	-1.082926E-2
1.760000E-8	-1.099884E-2
1.765000E-8	-1.122324E-2
1.770000E-8	-1.151273E-2
1.775000E-8	-1.185360E-2
1.780000E-8	-1.220647E-2
1.785000E-8	-1.254563E-2
1.790000E-8	-1.287966E-2
1.795000E-8	-1.317943E-2
1.800000E-8	-1.341924E-2
1.805000E-8	-1.358711E-2
1.810000E-8	-1.368475E-2
1.815000E-8	-1.369502E-2
1.820000E-8	-1.359739E-2
1.825000E-8	-1.341239E-2
1.830000E-8	-1.318799E-2
1.835000E-8	-1.293447E-2
1.840000E-8	-1.260730E-2
1.845000E-8	-1.220476E-2
1.850000E-8	-1.180221E-2
1.855000E-8	-1.144421E-2
1.860000E-8	-1.110504E-2
1.865000E-8	-1.078644E-2
1.870000E-8	-1.054148E-2
1.875000E-8	-1.038560E-2
1.880000E-8	-1.031537E-2
1.885000E-8	-1.032565E-2
1.890000E-8	-1.041815E-2
1.895000E-8	-1.061514E-2
1.900000E-8	-1.090120E-2
1.905000E-8	-1.124037E-2
1.910000E-8	-1.161036E-2
1.915000E-8	-1.201291E-2
1.920000E-8	-1.241716E-2
1.925000E-8	-1.278887E-2
1.930000E-8	-1.313489E-2
1.935000E-8	-1.344322E-2
1.940000E-8	-1.365734E-2
1.945000E-8	-1.376354E-2
1.950000E-8	-1.376526E-2
1.955000E-8	-1.363850E-2
1.960000E-8	-1.339868E-2
1.965000E-8	-1.309035E-2
1.970000E-8	-1.271179E-2
1.975000E-8	-1.226300E-2
1.980000E-8	-1.178166E-2
1.985000E-8	-1.129518E-2
1.990000E-8	-1.079329E-2
1.995000E-8	-1.029482E-2
2.000000E-8	-9.859729E-3
2.005000E-8	-9.532556E-3
2.010000E-8	-9.327002E-3
2.015000E-8	-9.255058E-3
2.020000E-8	-9.315011E-3
2.025000E-8	-9.505149E-3
2.030000E-8	-9.818618E-3
2.035000E-8	-1.022116E-2
2.040000E-8	-1.067681E-2
2.045000E-8	-1.117014E-2
2.050000E-8	-1.169087E-2
2.055000E-8	-1.219277E-2
2.060000E-8	-1.264156E-2
2.065000E-8	-1.303383E-2
2.070000E-8	-1.334730E-2
2.075000E-8	-1.354257E-2
2.080000E-8	-1.362308E-2
2.085000E-8	-1.360081E-2
2.090000E-8	-1.346720E-2
2.095000E-8	-1.323595E-2
2.100000E-8	-1.294647E-2
2.105000E-8	-1.260388E-2
2.110000E-8	-1.220133E-2
2.115000E-8	-1.177652E-2
2.120000E-8	-1.135171E-2
2.125000E-8	-1.092518E-2
2.130000E-8	-1.053463E-2
2.135000E-8	-1.020575E-2
2.140000E-8	-9.907692E-3
2.145000E-8	-9.649036E-3
2.150000E-8	-9.491445E-3
2.155000E-8	-9.440056E-3
2.160000E-8	-9.476028E-3
2.165000E-8	-9.616490E-3
2.170000E-8	-9.868294E-3
2.175000E-8	-1.018862E-2
2.180000E-8	-1.055861E-2
2.185000E-8	-1.095944E-2
2.190000E-8	-1.133287E-2
2.195000E-8	-1.166175E-2
2.200000E-8	-1.197180E-2
2.205000E-8	-1.223902E-2
2.210000E-8	-1.239661E-2
2.215000E-8	-1.242573E-2
2.220000E-8	-1.233152E-2
2.225000E-8	-1.211911E-2
2.230000E-8	-1.181249E-2
2.235000E-8	-1.145277E-2
2.240000E-8	-1.103995E-2
2.245000E-8	-1.058945E-2
2.250000E-8	-1.015436E-2
2.255000E-8	-9.753526E-3
2.260000E-8	-9.359548E-3
2.265000E-8	-9.001541E-3
2.270000E-8	-8.749738E-3
2.275000E-8	-8.609276E-3
2.280000E-8	-8.568165E-3
2.285000E-8	-8.638396E-3
2.290000E-8	-8.826820E-3
2.295000E-8	-9.094041E-3
2.300000E-8	-9.421214E-3
2.305000E-8	-9.806628E-3
2.310000E-8	-1.021774E-2
2.315000E-8	-1.063056E-2
2.320000E-8	-1.103995E-2
2.325000E-8	-1.143393E-2
2.330000E-8	-1.179879E-2
2.335000E-8	-1.211740E-2
2.340000E-8	-1.234865E-2
2.345000E-8	-1.247712E-2
2.350000E-8	-1.250624E-2
2.355000E-8	-1.242059E-2
2.360000E-8	-1.223388E-2
2.365000E-8	-1.198036E-2
2.370000E-8	-1.168573E-2
2.375000E-8	-1.133801E-2
2.380000E-8	-1.094745E-2
2.385000E-8	-1.056718E-2
2.390000E-8	-1.022630E-2
2.395000E-8	-9.923108E-3
2.400000E-8	-9.671305E-3
2.405000E-8	-9.496584E-3
2.410000E-8	-9.405797E-3
2.415000E-8	-9.381816E-3
2.420000E-8	-9.414362E-3
2.425000E-8	-9.493158E-3
2.430000E-8	-9.606213E-3
2.435000E-8	-9.777508E-3
2.440000E-8	-1.000533E-2
2.445000E-8	-1.024857E-2
2.450000E-8	-1.049009E-2
2.455000E-8	-1.076074E-2
2.460000E-8	-1.104852E-2
2.465000E-8	-1.131402E-2
2.470000E-8	-1.154185E-2
2.475000E-8	-1.174740E-2
2.480000E-8	-1.191184E-2
2.485000E-8	-1.201119E-2
2.490000E-8	-1.204545E-2
2.495000E-8	-1.201633E-2
2.500000E-8	-1.189643E-2
2.505000E-8	-1.165490E-2
2.510000E-8	-1.130375E-2
2.515000E-8	-1.087037E-2
2.520000E-8	-1.038389E-2
2.525000E-8	-9.854590E-3
2.530000E-8	-9.320150E-3
2.535000E-8	-8.825107E-3
2.540000E-8	-8.410573E-3
2.545000E-8	-8.114233E-3
2.550000E-8	-7.954929E-3
2.555000E-8	-7.944651E-3
2.560000E-8	-8.083400E-3
2.565000E-8	-8.372889E-3
2.570000E-8	-8.789135E-3
2.575000E-8	-9.287604E-3
2.580000E-8	-9.818618E-3
2.585000E-8	-1.035306E-2
2.590000E-8	-1.084981E-2
2.595000E-8	-1.123180E-2
2.600000E-8	-1.148361E-2
2.605000E-8	-1.164291E-2
2.610000E-8	-1.171314E-2
2.615000E-8	-1.166860E-2
2.620000E-8	-1.152129E-2
2.625000E-8	-1.131060E-2
2.630000E-8	-1.105366E-2
2.635000E-8	-1.075560E-2
2.640000E-8	-1.043185E-2
2.645000E-8	-1.010639E-2
2.650000E-8	-9.822044E-3
2.655000E-8	-9.578805E-3
2.660000E-8	-9.345844E-3
2.665000E-8	-9.128300E-3
2.670000E-8	-8.951866E-3
2.675000E-8	-8.811404E-3
2.680000E-8	-8.701775E-3
2.685000E-8	-8.653812E-3
2.690000E-8	-8.689784E-3
2.695000E-8	-8.790848E-3
2.700000E-8	-8.941588E-3
2.705000E-8	-9.131725E-3
2.710000E-8	-9.357835E-3
2.715000E-8	-9.633620E-3
2.720000E-8	-9.955654E-3
2.725000E-8	-1.029311E-2
2.730000E-8	-1.061514E-2
2.735000E-8	-1.090634E-2
2.740000E-8	-1.114102E-2
2.745000E-8	-1.130546E-2
2.750000E-8	-1.140652E-2
2.755000E-8	-1.142879E-2
2.760000E-8	-1.135513E-2
2.765000E-8	-1.120611E-2
2.770000E-8	-1.101426E-2
2.775000E-8	-1.077102E-2
2.780000E-8	-1.046269E-2
2.785000E-8	-1.012352E-2
2.790000E-8	-9.792924E-3
2.795000E-8	-9.464038E-3
2.800000E-8	-9.124874E-3
2.805000E-8	-8.821681E-3
2.810000E-8	-8.600711E-3
2.815000E-8	-8.444832E-3
2.820000E-8	-8.338630E-3
2.825000E-8	-8.314648E-3
2.830000E-8	-8.388305E-3
2.835000E-8	-8.525341E-3
2.840000E-8	-8.729182E-3
2.845000E-8	-9.015245E-3
2.850000E-8	-9.361261E-3
2.855000E-8	-9.715841E-3
2.860000E-8	-1.007042E-2
2.865000E-8	-1.041473E-2
2.870000E-8	-1.071278E-2
2.875000E-8	-1.092005E-2
2.880000E-8	-1.103824E-2
2.885000E-8	-1.108278E-2
2.890000E-8	-1.103995E-2
2.895000E-8	-1.090634E-2
2.900000E-8	-1.071449E-2
2.905000E-8	-1.047982E-2
2.910000E-8	-1.018176E-2
2.915000E-8	-9.818618E-3
2.920000E-8	-9.460612E-3
2.925000E-8	-9.160846E-3
2.930000E-8	-8.912468E-3
2.935000E-8	-8.706914E-3
2.940000E-8	-8.566452E-3
2.945000E-8	-8.503073E-3
2.950000E-8	-8.509925E-3
2.955000E-8	-8.575017E-3
2.960000E-8	-8.701775E-3
2.965000E-8	-8.902190E-3
2.970000E-8	-9.142003E-3
2.975000E-8	-9.373251E-3
2.980000E-8	-9.592509E-3
2.985000E-8	-9.818618E-3
2.990000E-8	-1.004987E-2
2.995000E-8	-1.026570E-2
3.000000E-8	-1.045926E-2
3.005000E-8	-1.064426E-2
3.010000E-8	-1.080699E-2
3.015000E-8	-1.091491E-2
3.020000E-8	-1.094917E-2
3.025000E-8	-1.092690E-2
3.030000E-8	-1.085495E-2
3.035000E-8	-1.071620E-2
3.040000E-8	-1.050209E-2
3.045000E-8	-1.024343E-2
3.050000E-8	-9.945377E-3
3.055000E-8	-9.595935E-3
3.060000E-8	-9.224225E-3
3.065000E-8	-8.876496E-3
3.070000E-8	-8.573304E-3
3.075000E-8	-8.323213E-3
3.080000E-8	-8.139927E-3
3.085000E-8	-8.045715E-3
3.090000E-8	-8.067983E-3
3.095000E-8	-8.205019E-3
3.100000E-8	-8.402009E-3
3.105000E-8	-8.640109E-3
3.110000E-8	-8.948440E-3
3.115000E-8	-9.313298E-3
3.120000E-8	-9.671305E-3
3.125000E-8	-1.002931E-2
3.130000E-8	-1.039588E-2
3.135000E-8	-1.071107E-2
3.140000E-8	-1.092518E-2
3.145000E-8	-1.105537E-2
3.150000E-8	-1.110333E-2
3.155000E-8	-1.105879E-2
3.160000E-8	-1.095430E-2
3.165000E-8	-1.082926E-2
3.170000E-8	-1.066995E-2
3.175000E-8	-1.045412E-2
3.180000E-8	-1.021260E-2
3.185000E-8	-9.971071E-3
3.190000E-8	-9.715841E-3
3.195000E-8	-9.436631E-3
3.200000E-8	-9.159133E-3
3.205000E-8	-8.921033E-3
3.210000E-8	-8.730895E-3
3.215000E-8	-8.576730E-3
3.220000E-8	-8.470527E-3
3.225000E-8	-8.432842E-3
3.230000E-8	-8.460249E-3
3.235000E-8	-8.535619E-3
3.240000E-8	-8.682933E-3
3.245000E-8	-8.924458E-3
3.250000E-8	-9.231077E-3
3.255000E-8	-9.549685E-3
3.260000E-8	-9.887136E-3
3.265000E-8	-1.022973E-2
3.270000E-8	-1.051750E-2
3.275000E-8	-1.071278E-2
3.280000E-8	-1.083268E-2
3.285000E-8	-1.087722E-2
3.290000E-8	-1.082755E-2
3.295000E-8	-1.068708E-2
3.300000E-8	-1.047125E-2
3.305000E-8	-1.019547E-2
3.310000E-8	-9.888849E-3
3.315000E-8	-9.566815E-3
3.320000E-8	-9.232789E-3
3.325000E-8	-8.915894E-3
3.330000E-8	-8.667516E-3
3.335000E-8	-8.472240E-3
3.340000E-8	-8.324926E-3
3.345000E-8	-8.270112E-3
3.350000E-8	-8.312935E-3
3.355000E-8	-8.391731E-3
3.360000E-8	-8.489369E-3
3.365000E-8	-8.653812E-3
3.370000E-8	-8.879922E-3
3.375000E-8	-9.102605E-3
3.380000E-8	-9.313298E-3
3.385000E-8	-9.532556E-3
3.390000E-8	-9.760378E-3
3.395000E-8	-9.962506E-3
3.400000E-8	-1.011667E-2
3.405000E-8	-1.024172E-2
3.410000E-8	-1.035991E-2
3.415000E-8	-1.044385E-2
3.420000E-8	-1.045070E-2
3.425000E-8	-1.039246E-2
3.430000E-8	-1.030852E-2
3.435000E-8	-1.018176E-2
3.440000E-8	-9.988200E-3
3.445000E-8	-9.763804E-3
3.450000E-8	-9.546259E-3
3.455000E-8	-9.321863E-3
3.460000E-8	-9.094041E-3
3.465000E-8	-8.909042E-3
3.470000E-8	-8.772006E-3
3.475000E-8	-8.657238E-3
3.480000E-8	-8.559600E-3
3.485000E-8	-8.504786E-3
3.490000E-8	-8.489369E-3
3.495000E-8	-8.513350E-3
3.500000E-8	-8.602424E-3
3.505000E-8	-8.748025E-3
3.510000E-8	-8.917607E-3
3.515000E-8	-9.104318E-3
3.520000E-8	-9.308159E-3
3.525000E-8	-9.522278E-3
3.530000E-8	-9.731258E-3
3.535000E-8	-9.929960E-3
3.540000E-8	-1.009269E-2
3.545000E-8	-1.022116E-2
3.550000E-8	-1.032908E-2
3.555000E-8	-1.039074E-2
3.560000E-8	-1.036676E-2
3.565000E-8	-1.027940E-2
3.570000E-8	-1.016121E-2
3.575000E-8	-9.984775E-3
3.580000E-8	-9.724406E-3
3.585000E-8	-9.421214E-3
3.590000E-8	-9.118022E-3
3.595000E-8	-8.794274E-3
3.600000E-8	-8.449971E-3
3.605000E-8	-8.126224E-3
3.610000E-8	-7.852152E-3
3.615000E-8	-7.641459E-3
3.620000E-8	-7.511275E-3
3.625000E-8	-7.492432E-3
3.630000E-8	-7.588357E-3
3.635000E-8	-7.771643E-3
3.640000E-8	-8.021734E-3
3.645000E-8	-8.338630E-3
3.650000E-8	-8.706914E-3
3.655000E-8	-9.082050E-3
3.660000E-8	-9.426353E-3
3.665000E-8	-9.729545E-3
3.670000E-8	-9.988200E-3
3.675000E-8	-1.017491E-2
3.680000E-8	-1.029824E-2
3.685000E-8	-1.037533E-2
3.690000E-8	-1.040273E-2
3.695000E-8	-1.035820E-2
3.700000E-8	-1.025713E-2
3.705000E-8	-1.012695E-2
3.710000E-8	-9.989913E-3
3.715000E-8	-9.859729E-3
3.720000E-8	-9.717554E-3
3.725000E-8	-9.551398E-3
3.730000E-8	-9.374964E-3
3.735000E-8	-9.189966E-3
3.740000E-8	-8.975847E-3
3.745000E-8	-8.748025E-3
3.750000E-8	-8.556174E-3
3.755000E-8	-8.398583E-3
3.760000E-8	-8.256408E-3
3.765000E-8	-8.160483E-3
3.770000E-8	-8.127937E-3
3.775000E-8	-8.141640E-3
3.780000E-8	-8.199881E-3
3.785000E-8	-8.333491E-3
3.790000E-8	-8.544184E-3
3.795000E-8	-8.806265E-3
3.800000E-8	-9.112883E-3
3.805000E-8	-9.453760E-3
3.810000E-8	-9.774082E-3
3.815000E-8	-1.002075E-2
3.820000E-8	-1.020061E-2
3.825000E-8	-1.034621E-2
3.830000E-8	-1.043357E-2
3.835000E-8	-1.040445E-2
3.840000E-8	-1.027426E-2
3.845000E-8	-1.010639E-2
3.850000E-8	-9.916257E-3
3.855000E-8	-9.674731E-3
3.860000E-8	-9.390381E-3
3.865000E-8	-9.097466E-3
3.870000E-8	-8.818256E-3
3.875000E-8	-8.569878E-3
3.880000E-8	-8.379740E-3
3.885000E-8	-8.282102E-3
3.890000E-8	-8.270112E-3
3.895000E-8	-8.300945E-3
3.900000E-8	-8.342055E-3
3.905000E-8	-8.413999E-3
3.910000E-8	-8.542471E-3
3.915000E-8	-8.705201E-3
3.920000E-8	-8.869644E-3
3.925000E-8	-9.040939E-3
3.930000E-8	-9.217373E-3
3.935000E-8	-9.366400E-3
3.940000E-8	-9.481167E-3
3.945000E-8	-9.580518E-3
3.950000E-8	-9.673018E-3
3.955000E-8	-9.744962E-3
3.960000E-8	-9.804915E-3
3.965000E-8	-9.858016E-3
3.970000E-8	-9.873433E-3
3.975000E-8	-9.842600E-3
3.980000E-8	-9.782646E-3
3.985000E-8	-9.698712E-3
3.990000E-8	-9.578805E-3
3.995000E-8	-9.428066E-3
4.000000E-8	-9.270474E-3
4.005000E-8	-9.121448E-3
4.010000E-8	-8.982699E-3
4.015000E-8	-8.854228E-3
4.020000E-8	-8.749738E-3
4.025000E-8	-8.689784E-3
4.030000E-8	-8.670942E-3
4.035000E-8	-8.681220E-3
4.040000E-8	-8.718904E-3
4.045000E-8	-8.787422E-3
4.050000E-8	-8.893625E-3
4.055000E-8	-9.037513E-3
4.060000E-8	-9.215660E-3
4.065000E-8	-9.409223E-3
4.070000E-8	-9.577092E-3
4.075000E-8	-9.702138E-3
4.080000E-8	-9.801489E-3
4.085000E-8	-9.897414E-3
4.090000E-8	-9.955654E-3
4.095000E-8	-9.950516E-3
4.100000E-8	-9.897414E-3
4.105000E-8	-9.832322E-3
4.110000E-8	-9.751813E-3
4.115000E-8	-9.642185E-3
4.120000E-8	-9.523991E-3
4.125000E-8	-9.405797E-3
4.130000E-8	-9.294456E-3
4.135000E-8	-9.164271E-3
4.140000E-8	-9.013532E-3
4.145000E-8	-8.861079E-3
4.150000E-8	-8.736034E-3
4.155000E-8	-8.662377E-3
4.160000E-8	-8.641822E-3
4.165000E-8	-8.676081E-3
4.170000E-8	-8.748025E-3
4.175000E-8	-8.838811E-3
4.180000E-8	-8.951866E-3
4.185000E-8	-9.073485E-3
4.190000E-8	-9.198530E-3
4.195000E-8	-9.338992E-3
4.200000E-8	-9.488019E-3
4.205000E-8	-9.606213E-3
4.210000E-8	-9.667879E-3
4.215000E-8	-9.691860E-3
4.220000E-8	-9.681582E-3
4.225000E-8	-9.631907E-3
4.230000E-8	-9.544546E-3
4.235000E-8	-9.424640E-3
4.240000E-8	-9.292743E-3
4.245000E-8	-9.167697E-3
4.250000E-8	-9.047791E-3
4.255000E-8	-8.893625E-3
4.260000E-8	-8.720617E-3
4.265000E-8	-8.585294E-3
4.270000E-8	-8.501360E-3
4.275000E-8	-8.436268E-3
4.280000E-8	-8.403722E-3
4.285000E-8	-8.424277E-3
4.290000E-8	-8.475666E-3
4.295000E-8	-8.535619E-3
4.300000E-8	-8.631544E-3
4.305000E-8	-8.775432E-3
4.310000E-8	-8.926171E-3
4.315000E-8	-9.071772E-3
4.320000E-8	-9.229364E-3
4.325000E-8	-9.380103E-3
4.330000E-8	-9.500010E-3
4.335000E-8	-9.594222E-3
4.340000E-8	-9.664453E-3
4.345000E-8	-9.714128E-3
4.350000E-8	-9.756952E-3
4.355000E-8	-9.792924E-3
4.360000E-8	-9.810054E-3
4.365000E-8	-9.830609E-3
4.370000E-8	-9.866581E-3
4.375000E-8	-9.870007E-3
4.380000E-8	-9.820331E-3
4.385000E-8	-9.772369E-3
4.390000E-8	-9.741536E-3
4.395000E-8	-9.679869E-3
4.400000E-8	-9.556537E-3
4.405000E-8	-9.400659E-3
4.410000E-8	-9.224225E-3
4.415000E-8	-9.018671E-3
4.420000E-8	-8.819969E-3
4.425000E-8	-8.670942E-3
4.430000E-8	-8.563026E-3
4.435000E-8	-8.485943E-3
4.440000E-8	-8.456823E-3
4.445000E-8	-8.497934E-3
4.450000E-8	-8.600711E-3
4.455000E-8	-8.741173E-3
4.460000E-8	-8.905616E-3
4.465000E-8	-9.088902E-3
4.470000E-8	-9.282465E-3
4.475000E-8	-9.453760E-3
4.480000E-8	-9.589083E-3
4.485000E-8	-9.695286E-3
4.490000E-8	-9.782646E-3
4.495000E-8	-9.822044E-3
4.500000E-8	-9.808341E-3
4.505000E-8	-9.760378E-3
4.510000E-8	-9.686721E-3
4.515000E-8	-9.578805E-3
4.520000E-8	-9.453760E-3
4.525000E-8	-9.335566E-3
4.530000E-8	-9.231077E-3
4.535000E-8	-9.124874E-3
4.540000E-8	-9.032374E-3
4.545000E-8	-8.977560E-3
4.550000E-8	-8.967282E-3
4.555000E-8	-8.977560E-3
4.560000E-8	-8.991264E-3
4.565000E-8	-9.020384E-3
4.570000E-8	-9.085476E-3
4.575000E-8	-9.172836E-3
4.580000E-8	-9.261910E-3
4.585000E-8	-9.357835E-3
4.590000E-8	-9.450334E-3
4.595000E-8	-9.508574E-3
4.600000E-8	-9.522278E-3
4.605000E-8	-9.523991E-3
4.610000E-8	-9.518852E-3
4.615000E-8	-9.469177E-3
4.620000E-8	-9.388668E-3
4.625000E-8	-9.321863E-3
4.630000E-8	-9.280752E-3
4.635000E-8	-9.232789E-3
4.640000E-8	-9.171123E-3
4.645000E-8	-9.124874E-3
4.650000E-8	-9.107744E-3
4.655000E-8	-9.100892E-3
4.660000E-8	-9.095753E-3
4.665000E-8	-9.100892E-3
4.670000E-8	-9.112883E-3
4.675000E-8	-9.106031E-3
4.680000E-8	-9.071772E-3
4.685000E-8	-9.035800E-3
4.690000E-8	-9.008393E-3
4.695000E-8	-8.972421E-3
4.700000E-8	-8.939875E-3
4.705000E-8	-8.951866E-3
4.710000E-8	-9.001541E-3
4.715000E-8	-9.046078E-3
4.720000E-8	-9.104318E-3
4.725000E-8	-9.212234E-3
4.730000E-8	-9.344131E-3
4.735000E-8	-9.455473E-3
4.740000E-8	-9.551398E-3
4.745000E-8	-9.630194E-3
4.750000E-8	-9.664453E-3
4.755000E-8	-9.650749E-3
4.760000E-8	-9.611351E-3
4.765000E-8	-9.559963E-3
4.770000E-8	-9.494871E-3
4.775000E-8	-9.405797E-3
4.780000E-8	-9.309872E-3
4.785000E-8	-9.234502E-3
4.790000E-8	-9.191679E-3
4.795000E-8	-9.167697E-3
4.800000E-8	-9.177975E-3
4.805000E-8	-9.234502E-3
4.810000E-8	-9.309872E-3
4.815000E-8	-9.371538E-3
4.820000E-8	-9.417788E-3
4.825000E-8	-9.465751E-3
4.830000E-8	-9.503436E-3
4.835000E-8	-9.503436E-3
4.840000E-8	-9.472602E-3
4.845000E-8	-9.434918E-3
4.850000E-8	-9.368113E-3
4.855000E-8	-9.237928E-3
4.860000E-8	-9.083763E-3
4.865000E-8	-8.979273E-3
4.870000E-8	-8.934736E-3
4.875000E-8	-8.922746E-3
4.880000E-8	-8.960430E-3
4.885000E-8	-9.040939E-3
4.890000E-8	-9.123161E-3
4.895000E-8	-9.200243E-3
4.900000E-8	-9.280752E-3
4.905000E-8	-9.354409E-3
4.910000E-8	-9.398946E-3
4.915000E-8	-9.424640E-3
4.920000E-8	-9.414362E-3
4.925000E-8	-9.350983E-3
4.930000E-8	-9.253345E-3
4.935000E-8	-9.126587E-3
4.940000E-8	-8.980986E-3
4.945000E-8	-8.867931E-3
4.950000E-8	-8.821681E-3
4.955000E-8	-8.809691E-3
4.960000E-8	-8.804552E-3
4.965000E-8	-8.837098E-3
4.970000E-8	-8.895338E-3
4.975000E-8	-8.929597E-3
4.980000E-8	-8.939875E-3
4.985000E-8	-8.974134E-3
4.990000E-8	-9.037513E-3
4.995000E-8	-9.092328E-3
5.000000E-8	-9.130012E-3
5.005000E-8	-9.159133E-3
5.010000E-8	-9.191679E-3
5.015000E-8	-9.229364E-3
5.020000E-8	-9.267048E-3
5.025000E-8	-9.287604E-3
5.030000E-8	-9.289317E-3
5.035000E-8	-9.280752E-3
5.040000E-8	-9.253345E-3
5.045000E-8	-9.208808E-3
5.050000E-8	-9.153994E-3
5.055000E-8	-9.087189E-3
5.060000E-8	-9.018671E-3
5.065000E-8	-8.977560E-3
5.070000E-8	-8.967282E-3
5.075000E-8	-8.967282E-3
5.080000E-8	-8.960430E-3
5.085000E-8	-8.968995E-3
5.090000E-8	-9.001541E-3
5.095000E-8	-9.040939E-3
5.100000E-8	-9.066633E-3
5.105000E-8	-9.082050E-3
5.110000E-8	-9.099179E-3
5.115000E-8	-9.106031E-3
5.120000E-8	-9.107744E-3
5.125000E-8	-9.126587E-3
5.130000E-8	-9.155707E-3
5.135000E-8	-9.174549E-3
5.140000E-8	-9.200243E-3
5.145000E-8	-9.261910E-3
5.150000E-8	-9.347557E-3
5.155000E-8	-9.407510E-3
5.160000E-8	-9.440056E-3
5.165000E-8	-9.443482E-3
5.170000E-8	-9.412649E-3
5.175000E-8	-9.340705E-3
5.180000E-8	-9.244780E-3
5.185000E-8	-9.126587E-3
5.190000E-8	-8.986125E-3
5.195000E-8	-8.840524E-3
5.200000E-8	-8.717192E-3
5.205000E-8	-8.650386E-3
5.210000E-8	-8.643535E-3
5.215000E-8	-8.689784E-3
5.220000E-8	-8.789135E-3
5.225000E-8	-8.941588E-3
5.230000E-8	-9.106031E-3
5.235000E-8	-9.236215E-3
5.240000E-8	-9.338992E-3
5.245000E-8	-9.417788E-3
5.250000E-8	-9.441769E-3
5.255000E-8	-9.405797E-3
5.260000E-8	-9.347557E-3
5.265000E-8	-9.268761E-3
5.270000E-8	-9.159133E-3
5.275000E-8	-9.034087E-3
5.280000E-8	-8.936449E-3
5.285000E-8	-8.881635E-3
5.290000E-8	-8.862792E-3
5.295000E-8	-8.857653E-3
5.300000E-8	-8.869644E-3
5.305000E-8	-8.931310E-3
5.310000E-8	-9.023810E-3
5.315000E-8	-9.099179E-3
5.320000E-8	-9.142003E-3
5.325000E-8	-9.179688E-3
5.330000E-8	-9.205382E-3
5.335000E-8	-9.186540E-3
5.340000E-8	-9.118022E-3
5.345000E-8	-9.034087E-3
5.350000E-8	-8.970708E-3
5.355000E-8	-8.917607E-3
5.360000E-8	-8.857653E-3
5.365000E-8	-8.809691E-3
5.370000E-8	-8.809691E-3
5.375000E-8	-8.850802E-3
5.380000E-8	-8.902190E-3
5.385000E-8	-8.984412E-3
5.390000E-8	-9.104318E-3
5.395000E-8	-9.208808E-3
5.400000E-8	-9.270474E-3
5.405000E-8	-9.328715E-3
5.410000E-8	-9.395520E-3
5.415000E-8	-9.441769E-3
5.420000E-8	-9.470890E-3
5.425000E-8	-9.510287E-3
5.430000E-8	-9.537695E-3
5.435000E-8	-9.535982E-3
5.440000E-8	-9.520565E-3
5.445000E-8	-9.496584E-3
5.450000E-8	-9.481167E-3
5.455000E-8	-9.476028E-3
5.460000E-8	-9.462325E-3
5.465000E-8	-9.424640E-3
5.470000E-8	-9.397233E-3
5.475000E-8	-9.398946E-3
5.480000E-8	-9.385242E-3
5.485000E-8	-9.342418E-3
5.490000E-8	-9.304733E-3
5.495000E-8	-9.285891E-3
5.500000E-8	-9.284178E-3
5.505000E-8	-9.315011E-3
5.510000E-8	-9.373251E-3
5.515000E-8	-9.445195E-3
5.520000E-8	-9.551398E-3
5.525000E-8	-9.700425E-3
5.530000E-8	-9.828896E-3
5.535000E-8	-9.907692E-3
5.540000E-8	-9.972784E-3
5.545000E-8	-1.003274E-2
5.550000E-8	-1.005158E-2
5.555000E-8	-1.002246E-2
5.560000E-8	-9.988200E-3
5.565000E-8	-9.952228E-3
5.570000E-8	-9.890562E-3
5.575000E-8	-9.810054E-3
5.580000E-8	-9.739823E-3
5.585000E-8	-9.669592E-3
5.590000E-8	-9.578805E-3
5.595000E-8	-9.479454E-3
5.600000E-8	-9.392094E-3
5.605000E-8	-9.311585E-3
5.610000E-8	-9.237928E-3
5.615000E-8	-9.188253E-3
5.620000E-8	-9.155707E-3
5.625000E-8	-9.136864E-3
5.630000E-8	-9.126587E-3
5.635000E-8	-9.111170E-3
5.640000E-8	-9.076911E-3
5.645000E-8	-9.058069E-3
5.650000E-8	-9.075198E-3
5.655000E-8	-9.100892E-3
5.660000E-8	-9.100892E-3
5.665000E-8	-9.094041E-3
5.670000E-8	-9.097466E-3
5.675000E-8	-9.099179E-3
5.680000E-8	-9.085476E-3
5.685000E-8	-9.078624E-3
5.690000E-8	-9.100892E-3
5.695000E-8	-9.133438E-3
5.700000E-8	-9.152281E-3
5.705000E-8	-9.164271E-3
5.710000E-8	-9.195105E-3
5.715000E-8	-9.239641E-3
5.720000E-8	-9.282465E-3
5.725000E-8	-9.325289E-3
5.730000E-8	-9.352696E-3
5.735000E-8	-9.347557E-3
5.740000E-8	-9.327002E-3
5.745000E-8	-9.308159E-3
5.750000E-8	-9.285891E-3
5.755000E-8	-9.270474E-3
5.760000E-8	-9.272187E-3
5.765000E-8	-9.280752E-3
5.770000E-8	-9.294456E-3
5.775000E-8	-9.333854E-3
5.780000E-8	-9.388668E-3
5.785000E-8	-9.441769E-3
5.790000E-8	-9.512000E-3
5.795000E-8	-9.606213E-3
5.800000E-8	-9.691860E-3
5.805000E-8	-9.755239E-3
5.810000E-8	-9.811767E-3
5.815000E-8	-9.859729E-3
5.820000E-8	-9.868294E-3
5.825000E-8	-9.839174E-3
5.830000E-8	-9.791211E-3
5.835000E-8	-9.736397E-3
5.840000E-8	-9.676444E-3
5.845000E-8	-9.611351E-3
5.850000E-8	-9.541120E-3
5.855000E-8	-9.452047E-3
5.860000E-8	-9.340705E-3
5.865000E-8	-9.229364E-3
5.870000E-8	-9.157420E-3
5.875000E-8	-9.136864E-3
5.880000E-8	-9.143716E-3
5.885000E-8	-9.171123E-3
5.890000E-8	-9.227651E-3
5.895000E-8	-9.297882E-3
5.900000E-8	-9.359548E-3
5.905000E-8	-9.409223E-3
5.910000E-8	-9.452047E-3
5.915000E-8	-9.467464E-3
5.920000E-8	-9.450334E-3
5.925000E-8	-9.421214E-3
5.930000E-8	-9.386955E-3
5.935000E-8	-9.335566E-3
5.940000E-8	-9.272187E-3
5.945000E-8	-9.224225E-3
5.950000E-8	-9.195105E-3
5.955000E-8	-9.176262E-3
5.960000E-8	-9.176262E-3
5.965000E-8	-9.196818E-3
5.970000E-8	-9.222512E-3
5.975000E-8	-9.248206E-3
5.980000E-8	-9.291030E-3
5.985000E-8	-9.354409E-3
5.990000E-8	-9.416075E-3
5.995000E-8	-9.446908E-3
6.000000E-8	-9.436631E-3
6.005000E-8	-9.395520E-3
6.010000E-8	-9.344131E-3
6.015000E-8	-9.282465E-3
6.020000E-8	-9.219086E-3
6.025000E-8	-9.179688E-3
6.030000E-8	-9.172836E-3
6.035000E-8	-9.172836E-3
6.040000E-8	-9.188253E-3
6.045000E-8	-9.244780E-3
6.050000E-8	-9.306446E-3
6.055000E-8	-9.338992E-3
6.060000E-8	-9.369825E-3
6.065000E-8	-9.438343E-3
6.070000E-8	-9.505149E-3
6.075000E-8	-9.525704E-3
6.080000E-8	-9.518852E-3
6.085000E-8	-9.529130E-3
6.090000E-8	-9.544546E-3
6.095000E-8	-9.537695E-3
6.100000E-8	-9.513713E-3
6.105000E-8	-9.501723E-3
6.110000E-8	-9.503436E-3
6.115000E-8	-9.488019E-3
6.120000E-8	-9.434918E-3
6.125000E-8	-9.356122E-3
6.130000E-8	-9.273900E-3
6.135000E-8	-9.200243E-3
6.140000E-8	-9.138577E-3
6.145000E-8	-9.095753E-3
6.150000E-8	-9.092328E-3
6.155000E-8	-9.118022E-3
6.160000E-8	-9.148855E-3
6.165000E-8	-9.195105E-3
6.170000E-8	-9.282465E-3
6.175000E-8	-9.386955E-3
6.180000E-8	-9.479454E-3
6.185000E-8	-9.565102E-3
6.190000E-8	-9.633620E-3
6.195000E-8	-9.666166E-3
6.200000E-8	-9.676444E-3
6.205000E-8	-9.685008E-3
6.210000E-8	-9.688434E-3
6.215000E-8	-9.667879E-3
6.220000E-8	-9.628481E-3
6.225000E-8	-9.589083E-3
6.230000E-8	-9.551398E-3
6.235000E-8	-9.508574E-3
6.240000E-8	-9.462325E-3
6.245000E-8	-9.446908E-3
6.250000E-8	-9.453760E-3
6.255000E-8	-9.441769E-3
6.260000E-8	-9.414362E-3
6.265000E-8	-9.407510E-3
6.270000E-8	-9.400659E-3
6.275000E-8	-9.359548E-3
6.280000E-8	-9.294456E-3
6.285000E-8	-9.241354E-3
6.290000E-8	-9.193392E-3
6.295000E-8	-9.145429E-3
6.300000E-8	-9.104318E-3
6.305000E-8	-9.087189E-3
6.310000E-8	-9.114596E-3
6.315000E-8	-9.181401E-3
6.320000E-8	-9.253345E-3
6.325000E-8	-9.327002E-3
6.330000E-8	-9.421214E-3
6.335000E-8	-9.508574E-3
6.340000E-8	-9.561676E-3
6.345000E-8	-9.597648E-3
6.350000E-8	-9.633620E-3
6.355000E-8	-9.645610E-3
6.360000E-8	-9.609638E-3
6.365000E-8	-9.541120E-3
6.370000E-8	-9.465751E-3
6.375000E-8	-9.388668E-3
6.380000E-8	-9.321863E-3
6.385000E-8	-9.280752E-3
6.390000E-8	-9.261910E-3
6.395000E-8	-9.251632E-3
6.400000E-8	-9.251632E-3
6.405000E-8	-9.275613E-3
6.410000E-8	-9.316724E-3
6.415000E-8	-9.345844E-3
6.420000E-8	-9.373251E-3
6.425000E-8	-9.422927E-3
6.430000E-8	-9.482880E-3
6.435000E-8	-9.512000E-3
6.440000E-8	-9.498297E-3
6.445000E-8	-9.458899E-3
6.450000E-8	-9.416075E-3
6.455000E-8	-9.368113E-3
6.460000E-8	-9.301307E-3
6.465000E-8	-9.224225E-3
6.470000E-8	-9.165984E-3
6.475000E-8	-9.124874E-3
6.480000E-8	-9.094041E-3
6.485000E-8	-9.088902E-3
6.490000E-8	-9.116309E-3
6.495000E-8	-9.150568E-3
6.500000E-8	-9.179688E-3
6.505000E-8	-9.232789E-3
6.510000E-8	-9.316724E-3
6.515000E-8	-9.397233E-3
6.520000E-8	-9.460612E-3
6.525000E-8	-9.518852E-3
6.530000E-8	-9.558250E-3
6.535000E-8	-9.547972E-3
6.540000E-8	-9.496584E-3
6.545000E-8	-9.431492E-3
6.550000E-8	-9.344131E-3
6.555000E-8	-9.222512E-3
6.560000E-8	-9.085476E-3
6.565000E-8	-8.950153E-3
6.570000E-8	-8.823394E-3
6.575000E-8	-8.729182E-3
6.580000E-8	-8.676081E-3
6.585000E-8	-8.650386E-3
6.590000E-8	-8.660664E-3
6.595000E-8	-8.730895E-3
6.600000E-8	-8.864505E-3
6.605000E-8	-9.058069E-3
6.610000E-8	-9.297882E-3
6.615000E-8	-9.537695E-3
6.620000E-8	-9.760378E-3
6.625000E-8	-9.972784E-3
6.630000E-8	-1.015093E-2
6.635000E-8	-1.025542E-2
6.640000E-8	-1.029139E-2
6.645000E-8	-1.028283E-2
6.650000E-8	-1.021945E-2
6.655000E-8	-1.008241E-2
6.660000E-8	-9.893988E-3
6.665000E-8	-9.683295E-3
6.670000E-8	-9.467464E-3
6.675000E-8	-9.237928E-3
6.680000E-8	-9.008393E-3
6.685000E-8	-8.811404E-3
6.690000E-8	-8.672655E-3
6.695000E-8	-8.578443E-3
6.700000E-8	-8.515063E-3
6.705000E-8	-8.506499E-3
6.710000E-8	-8.552748E-3
6.715000E-8	-8.610989E-3
6.720000E-8	-8.676081E-3
6.725000E-8	-8.770293E-3
6.730000E-8	-8.871357E-3
6.735000E-8	-8.962143E-3
6.740000E-8	-9.058069E-3
6.745000E-8	-9.157420E-3
6.750000E-8	-9.255058E-3
6.755000E-8	-9.361261E-3
6.760000E-8	-9.472602E-3
6.765000E-8	-9.563389E-3
6.770000E-8	-9.638759E-3
6.775000E-8	-9.717554E-3
6.780000E-8	-9.779221E-3
6.785000E-8	-9.804915E-3
6.790000E-8	-9.810054E-3
6.795000E-8	-9.803202E-3
6.800000E-8	-9.787785E-3
6.805000E-8	-9.779221E-3
6.810000E-8	-9.774082E-3
6.815000E-8	-9.746674E-3
6.820000E-8	-9.700425E-3
6.825000E-8	-9.676444E-3
6.830000E-8	-9.669592E-3
6.835000E-8	-9.647323E-3
6.840000E-8	-9.611351E-3
6.845000E-8	-9.580518E-3
6.850000E-8	-9.561676E-3
6.855000E-8	-9.547972E-3
6.860000E-8	-9.525704E-3
6.865000E-8	-9.506861E-3
6.870000E-8	-9.500010E-3
6.875000E-8	-9.479454E-3
6.880000E-8	-9.443482E-3
6.885000E-8	-9.438343E-3
6.890000E-8	-9.479454E-3
6.895000E-8	-9.520565E-3
6.900000E-8	-9.551398E-3
6.905000E-8	-9.604500E-3
6.910000E-8	-9.664453E-3
6.915000E-8	-9.700425E-3
6.920000E-8	-9.727832E-3
6.925000E-8	-9.765517E-3
6.930000E-8	-9.789498E-3
6.935000E-8	-9.799776E-3
6.940000E-8	-9.815192E-3
6.945000E-8	-9.822044E-3
6.950000E-8	-9.799776E-3
6.955000E-8	-9.772369E-3
6.960000E-8	-9.755239E-3
6.965000E-8	-9.738110E-3
6.970000E-8	-9.708990E-3
6.975000E-8	-9.666166E-3
6.980000E-8	-9.618203E-3
6.985000E-8	-9.575379E-3
6.990000E-8	-9.525704E-3
6.995000E-8	-9.467464E-3
7.000000E-8	-9.426353E-3
7.005000E-8	-9.412649E-3
7.010000E-8	-9.400659E-3
7.015000E-8	-9.381816E-3
7.020000E-8	-9.386955E-3
7.025000E-8	-9.441769E-3
7.030000E-8	-9.523991E-3
7.035000E-8	-9.599361E-3
7.040000E-8	-9.679869E-3
7.045000E-8	-9.775795E-3
7.050000E-8	-9.878572E-3
7.055000E-8	-9.957367E-3
7.060000E-8	-9.988200E-3
7.065000E-8	-9.974497E-3
7.070000E-8	-9.936812E-3
7.075000E-8	-9.880285E-3
7.080000E-8	-9.786072E-3
7.085000E-8	-9.667879E-3
7.090000E-8	-9.558250E-3
7.095000E-8	-9.460612E-3
7.100000E-8	-9.356122E-3
7.105000E-8	-9.279039E-3
7.110000E-8	-9.256771E-3
7.115000E-8	-9.277326E-3
7.120000E-8	-9.335566E-3
7.125000E-8	-9.436631E-3
7.130000E-8	-9.566815E-3
7.135000E-8	-9.702138E-3
7.140000E-8	-9.828896E-3
7.145000E-8	-9.926534E-3
7.150000E-8	-9.983062E-3
7.155000E-8	-9.996765E-3
7.160000E-8	-9.974497E-3
7.165000E-8	-9.924821E-3
7.170000E-8	-9.851164E-3
7.175000E-8	-9.741536E-3
7.180000E-8	-9.607926E-3
7.185000E-8	-9.491445E-3
7.190000E-8	-9.397233E-3
7.195000E-8	-9.301307E-3
7.200000E-8	-9.220799E-3
7.205000E-8	-9.189966E-3
7.210000E-8	-9.217373E-3
7.215000E-8	-9.258484E-3
7.220000E-8	-9.301307E-3
7.225000E-8	-9.359548E-3
7.230000E-8	-9.422927E-3
7.235000E-8	-9.453760E-3
7.240000E-8	-9.455473E-3
7.245000E-8	-9.462325E-3
7.250000E-8	-9.476028E-3
7.255000E-8	-9.453760E-3
7.260000E-8	-9.421214E-3
7.265000E-8	-9.426353E-3
7.270000E-8	-9.462325E-3
7.275000E-8	-9.493158E-3
7.280000E-8	-9.522278E-3
7.285000E-8	-9.568528E-3
7.290000E-8	-9.611351E-3
7.295000E-8	-9.623342E-3
7.300000E-8	-9.601074E-3
7.305000E-8	-9.559963E-3
7.310000E-8	-9.517139E-3
7.315000E-8	-9.462325E-3
7.320000E-8	-9.395520E-3
7.325000E-8	-9.342418E-3
7.330000E-8	-9.313298E-3
7.335000E-8	-9.280752E-3
7.340000E-8	-9.243067E-3
7.345000E-8	-9.234502E-3
7.350000E-8	-9.260197E-3
7.355000E-8	-9.301307E-3
7.360000E-8	-9.359548E-3
7.365000E-8	-9.438343E-3
7.370000E-8	-9.523991E-3
7.375000E-8	-9.599361E-3
7.380000E-8	-9.650749E-3
7.385000E-8	-9.669592E-3
7.390000E-8	-9.669592E-3
7.395000E-8	-9.662740E-3
7.400000E-8	-9.645610E-3
7.405000E-8	-9.607926E-3
7.410000E-8	-9.546259E-3
7.415000E-8	-9.472602E-3
7.420000E-8	-9.395520E-3
7.425000E-8	-9.335566E-3
7.430000E-8	-9.299595E-3
7.435000E-8	-9.277326E-3
7.440000E-8	-9.272187E-3
7.445000E-8	-9.292743E-3
7.450000E-8	-9.328715E-3
7.455000E-8	-9.361261E-3
7.460000E-8	-9.404084E-3
7.465000E-8	-9.458899E-3
7.470000E-8	-9.506861E-3
7.475000E-8	-9.532556E-3
7.480000E-8	-9.547972E-3
7.485000E-8	-9.542833E-3
7.490000E-8	-9.517139E-3
7.495000E-8	-9.488019E-3
7.500000E-8	-9.458899E-3
7.505000E-8	-9.421214E-3
7.510000E-8	-9.378390E-3
7.515000E-8	-9.338992E-3
7.520000E-8	-9.292743E-3
7.525000E-8	-9.253345E-3
7.530000E-8	-9.239641E-3
7.535000E-8	-9.222512E-3
7.540000E-8	-9.200243E-3
7.545000E-8	-9.200243E-3
7.550000E-8	-9.217373E-3
7.555000E-8	-9.219086E-3
7.560000E-8	-9.208808E-3
7.565000E-8	-9.201956E-3
7.570000E-8	-9.196818E-3
7.575000E-8	-9.189966E-3
7.580000E-8	-9.188253E-3
7.585000E-8	-9.195105E-3
7.590000E-8	-9.210521E-3
7.595000E-8	-9.222512E-3
7.600000E-8	-9.224225E-3
7.605000E-8	-9.229364E-3
7.610000E-8	-9.253345E-3
7.615000E-8	-9.284178E-3
7.620000E-8	-9.315011E-3
7.625000E-8	-9.369825E-3
7.630000E-8	-9.431492E-3
7.635000E-8	-9.450334E-3
7.640000E-8	-9.431492E-3
7.645000E-8	-9.429779E-3
7.650000E-8	-9.462325E-3
7.655000E-8	-9.488019E-3
7.660000E-8	-9.493158E-3
7.665000E-8	-9.508574E-3
7.670000E-8	-9.547972E-3
7.675000E-8	-9.578805E-3
7.680000E-8	-9.577092E-3
7.685000E-8	-9.565102E-3
7.690000E-8	-9.573667E-3
7.695000E-8	-9.597648E-3
7.700000E-8	-9.625055E-3
7.705000E-8	-9.669592E-3
7.710000E-8	-9.726119E-3
7.715000E-8	-9.786072E-3
7.720000E-8	-9.835748E-3
7.725000E-8	-9.875146E-3
7.730000E-8	-9.902553E-3
7.735000E-8	-9.923108E-3
7.740000E-8	-9.960793E-3
7.745000E-8	-1.002589E-2
7.750000E-8	-1.009783E-2
7.755000E-8	-1.015778E-2
7.760000E-8	-1.021088E-2
7.765000E-8	-1.027426E-2
7.770000E-8	-1.032908E-2
7.775000E-8	-1.035135E-2
7.780000E-8	-1.034621E-2
7.785000E-8	-1.033250E-2
7.790000E-8	-1.028625E-2
7.795000E-8	-1.018348E-2
7.800000E-8	-1.006528E-2
7.805000E-8	-9.955654E-3
7.810000E-8	-9.815192E-3
7.815000E-8	-9.635333E-3
7.820000E-8	-9.470890E-3
7.825000E-8	-9.349270E-3
7.830000E-8	-9.258484E-3
7.835000E-8	-9.201956E-3
7.840000E-8	-9.165984E-3
7.845000E-8	-9.153994E-3
7.850000E-8	-9.181401E-3
7.855000E-8	-9.236215E-3
7.860000E-8	-9.284178E-3
7.865000E-8	-9.337279E-3
7.870000E-8	-9.429779E-3
7.875000E-8	-9.508574E-3
7.880000E-8	-9.549685E-3
7.885000E-8	-9.602787E-3
7.890000E-8	-9.683295E-3
7.895000E-8	-9.739823E-3
7.900000E-8	-9.750100E-3
7.905000E-8	-9.756952E-3
7.910000E-8	-9.770656E-3
7.915000E-8	-9.758665E-3
7.920000E-8	-9.720980E-3
7.925000E-8	-9.685008E-3
7.930000E-8	-9.643897E-3
7.935000E-8	-9.561676E-3
7.940000E-8	-9.450334E-3
7.945000E-8	-9.361261E-3
7.950000E-8	-9.294456E-3
7.955000E-8	-9.231077E-3
7.960000E-8	-9.184827E-3
7.965000E-8	-9.171123E-3
7.970000E-8	-9.181401E-3
7.975000E-8	-9.210521E-3
7.980000E-8	-9.263623E-3
7.985000E-8	-9.332141E-3
7.990000E-8	-9.414362E-3
7.995000E-8	-9.508574E-3
8.000000E-8	-9.594222E-3
8.005000E-8	-9.659314E-3
8.010000E-8	-9.727832E-3
8.015000E-8	-9.791211E-3
8.020000E-8	-9.818618E-3
8.025000E-8	-9.825470E-3
8.030000E-8	-9.832322E-3
8.035000E-8	-9.825470E-3
8.040000E-8	-9.803202E-3
8.045000E-8	-9.798063E-3
8.050000E-8	-9.813480E-3
8.055000E-8	-9.818618E-3
8.060000E-8	-9.811767E-3
8.065000E-8	-9.816905E-3
8.070000E-8	-9.827183E-3
8.075000E-8	-9.844313E-3
8.080000E-8	-9.875146E-3
8.085000E-8	-9.897414E-3
8.090000E-8	-9.887136E-3
8.095000E-8	-9.863155E-3
8.100000E-8	-9.840887E-3
8.105000E-8	-9.803202E-3
8.110000E-8	-9.751813E-3
8.115000E-8	-9.722693E-3
8.120000E-8	-9.714128E-3
8.125000E-8	-9.707277E-3
8.130000E-8	-9.726119E-3
8.135000E-8	-9.765517E-3
8.140000E-8	-9.794637E-3
8.145000E-8	-9.815192E-3
8.150000E-8	-9.837461E-3
8.155000E-8	-9.849451E-3
8.160000E-8	-9.852877E-3
8.165000E-8	-9.881998E-3
8.170000E-8	-9.928247E-3
8.175000E-8	-9.967645E-3
8.180000E-8	-9.986487E-3
8.185000E-8	-9.977923E-3
8.190000E-8	-9.955654E-3
8.195000E-8	-9.945377E-3
8.200000E-8	-9.931673E-3
8.205000E-8	-9.893988E-3
8.210000E-8	-9.854590E-3
8.215000E-8	-9.820331E-3
8.220000E-8	-9.763804E-3
8.225000E-8	-9.686721E-3
8.230000E-8	-9.621629E-3
8.235000E-8	-9.553111E-3
8.240000E-8	-9.467464E-3
8.245000E-8	-9.398946E-3
8.250000E-8	-9.357835E-3
8.255000E-8	-9.315011E-3
8.260000E-8	-9.263623E-3
8.265000E-8	-9.237928E-3
8.270000E-8	-9.249919E-3
8.275000E-8	-9.279039E-3
8.280000E-8	-9.304733E-3
8.285000E-8	-9.321863E-3
8.290000E-8	-9.340705E-3
8.295000E-8	-9.338992E-3
8.300000E-8	-9.294456E-3
8.305000E-8	-9.237928E-3
8.310000E-8	-9.200243E-3
8.315000E-8	-9.165984E-3
8.320000E-8	-9.138577E-3
8.325000E-8	-9.136864E-3
8.330000E-8	-9.142003E-3
8.335000E-8	-9.130012E-3
8.340000E-8	-9.123161E-3
8.345000E-8	-9.143716E-3
8.350000E-8	-9.174549E-3
8.355000E-8	-9.215660E-3
8.360000E-8	-9.268761E-3
8.365000E-8	-9.318437E-3
8.370000E-8	-9.368113E-3
8.375000E-8	-9.433205E-3
8.380000E-8	-9.500010E-3
8.385000E-8	-9.553111E-3
8.390000E-8	-9.599361E-3
8.395000E-8	-9.619916E-3
8.400000E-8	-9.602787E-3
8.405000E-8	-9.587370E-3
8.410000E-8	-9.583944E-3
8.415000E-8	-9.558250E-3
8.420000E-8	-9.515426E-3
8.425000E-8	-9.479454E-3
8.430000E-8	-9.431492E-3
8.435000E-8	-9.347557E-3
8.440000E-8	-9.265336E-3
8.445000E-8	-9.210521E-3
8.450000E-8	-9.164271E-3
8.455000E-8	-9.106031E-3
8.460000E-8	-9.059782E-3
8.465000E-8	-9.039226E-3
8.470000E-8	-9.040939E-3
8.475000E-8	-9.058069E-3
8.480000E-8	-9.071772E-3
8.485000E-8	-9.090615E-3
8.490000E-8	-9.153994E-3
8.495000E-8	-9.270474E-3
8.500000E-8	-9.385242E-3
8.505000E-8	-9.458899E-3
8.510000E-8	-9.505149E-3
8.515000E-8	-9.556537E-3
8.520000E-8	-9.601074E-3
8.525000E-8	-9.618203E-3
8.530000E-8	-9.625055E-3
8.535000E-8	-9.633620E-3
8.540000E-8	-9.638759E-3
8.545000E-8	-9.635333E-3
8.550000E-8	-9.621629E-3
8.555000E-8	-9.601074E-3
8.560000E-8	-9.587370E-3
8.565000E-8	-9.590796E-3
8.570000E-8	-9.614777E-3
8.575000E-8	-9.657601E-3
8.580000E-8	-9.700425E-3
8.585000E-8	-9.736397E-3
8.590000E-8	-9.772369E-3
8.595000E-8	-9.787785E-3
8.600000E-8	-9.748387E-3
8.605000E-8	-9.679869E-3
8.610000E-8	-9.637046E-3
8.615000E-8	-9.604500E-3
8.620000E-8	-9.547972E-3
8.625000E-8	-9.494871E-3
8.630000E-8	-9.470890E-3
8.635000E-8	-9.441769E-3
8.640000E-8	-9.392094E-3
8.645000E-8	-9.362974E-3
8.650000E-8	-9.347557E-3
8.655000E-8	-9.327002E-3
8.660000E-8	-9.318437E-3
8.665000E-8	-9.342418E-3
8.670000E-8	-9.364687E-3
8.675000E-8	-9.368113E-3
8.680000E-8	-9.381816E-3
8.685000E-8	-9.422927E-3
8.690000E-8	-9.486306E-3
8.695000E-8	-9.558250E-3
8.700000E-8	-9.628481E-3
8.705000E-8	-9.696999E-3
8.710000E-8	-9.775795E-3
8.715000E-8	-9.856303E-3
8.720000E-8	-9.912831E-3
8.725000E-8	-9.955654E-3
8.730000E-8	-9.998478E-3
8.735000E-8	-1.001218E-2
8.740000E-8	-9.969358E-3
8.745000E-8	-9.887136E-3
8.750000E-8	-9.794637E-3
8.755000E-8	-9.678156E-3
8.760000E-8	-9.537695E-3
8.765000E-8	-9.402372E-3
8.770000E-8	-9.279039E-3
8.775000E-8	-9.164271E-3
8.780000E-8	-9.092328E-3
8.785000E-8	-9.082050E-3
8.790000E-8	-9.116309E-3
8.795000E-8	-9.172836E-3
8.800000E-8	-9.258484E-3
8.805000E-8	-9.366400E-3
8.810000E-8	-9.486306E-3
8.815000E-8	-9.613064E-3
8.820000E-8	-9.708990E-3
8.825000E-8	-9.767230E-3
8.830000E-8	-9.818618E-3
8.835000E-8	-9.856303E-3
8.840000E-8	-9.827183E-3
8.845000E-8	-9.755239E-3
8.850000E-8	-9.691860E-3
8.855000E-8	-9.633620E-3
8.860000E-8	-9.580518E-3
8.865000E-8	-9.551398E-3
8.870000E-8	-9.541120E-3
8.875000E-8	-9.525704E-3
8.880000E-8	-9.517139E-3
8.885000E-8	-9.518852E-3
8.890000E-8	-9.518852E-3
8.895000E-8	-9.508574E-3
8.900000E-8	-9.482880E-3
8.905000E-8	-9.440056E-3
8.910000E-8	-9.409223E-3
8.915000E-8	-9.383529E-3
8.920000E-8	-9.337279E-3
8.925000E-8	-9.292743E-3
8.930000E-8	-9.292743E-3
8.935000E-8	-9.299595E-3
8.940000E-8	-9.282465E-3
8.945000E-8	-9.284178E-3
8.950000E-8	-9.328715E-3
8.955000E-8	-9.368113E-3
8.960000E-8	-9.378390E-3
8.965000E-8	-9.386955E-3
8.970000E-8	-9.395520E-3
8.975000E-8	-9.392094E-3
8.980000E-8	-9.383529E-3
8.985000E-8	-9.376677E-3
8.990000E-8	-9.374964E-3
8.995000E-8	-9.388668E-3
9.000000E-8	-9.419501E-3
9.005000E-8	-9.474315E-3
9.010000E-8	-9.554824E-3
9.015000E-8	-9.649036E-3
9.020000E-8	-9.732971E-3
9.025000E-8	-9.823757E-3
9.030000E-8	-9.953941E-3
9.035000E-8	-1.007385E-2
9.040000E-8	-1.013380E-2
9.045000E-8	-1.016292E-2
9.050000E-8	-1.018862E-2
9.055000E-8	-1.016977E-2
9.060000E-8	-1.009612E-2
9.065000E-8	-1.002075E-2
9.070000E-8	-9.941951E-3
9.075000E-8	-9.830609E-3
9.080000E-8	-9.714128E-3
9.085000E-8	-9.637046E-3
9.090000E-8	-9.592509E-3
9.095000E-8	-9.558250E-3
9.100000E-8	-9.561676E-3
9.105000E-8	-9.606213E-3
9.110000E-8	-9.667879E-3
9.115000E-8	-9.720980E-3
9.120000E-8	-9.755239E-3
9.125000E-8	-9.772369E-3
9.130000E-8	-9.775795E-3
9.135000E-8	-9.751813E-3
9.140000E-8	-9.702138E-3
9.145000E-8	-9.640472E-3
9.150000E-8	-9.563389E-3
9.155000E-8	-9.469177E-3
9.160000E-8	-9.369825E-3
9.165000E-8	-9.297882E-3
9.170000E-8	-9.270474E-3
9.175000E-8	-9.273900E-3
9.180000E-8	-9.294456E-3
9.185000E-8	-9.333854E-3
9.190000E-8	-9.385242E-3
9.195000E-8	-9.424640E-3
9.200000E-8	-9.434918E-3
9.205000E-8	-9.448621E-3
9.210000E-8	-9.464038E-3
9.215000E-8	-9.453760E-3
9.220000E-8	-9.404084E-3
9.225000E-8	-9.354409E-3
9.230000E-8	-9.321863E-3
9.235000E-8	-9.308159E-3
9.240000E-8	-9.315011E-3
9.245000E-8	-9.352696E-3
9.250000E-8	-9.414362E-3
9.255000E-8	-9.494871E-3
9.260000E-8	-9.589083E-3
9.265000E-8	-9.690147E-3
9.270000E-8	-9.780933E-3
9.275000E-8	-9.858016E-3
9.280000E-8	-9.914544E-3
9.285000E-8	-9.931673E-3
9.290000E-8	-9.902553E-3
9.295000E-8	-9.846026E-3
9.300000E-8	-9.768943E-3
9.305000E-8	-9.685008E-3
9.310000E-8	-9.599361E-3
9.315000E-8	-9.503436E-3
9.320000E-8	-9.409223E-3
9.325000E-8	-9.347557E-3
9.330000E-8	-9.323576E-3
9.335000E-8	-9.296169E-3
9.340000E-8	-9.256771E-3
9.345000E-8	-9.251632E-3
9.350000E-8	-9.289317E-3
9.355000E-8	-9.327002E-3
9.360000E-8	-9.347557E-3
9.365000E-8	-9.376677E-3
9.370000E-8	-9.410936E-3
9.375000E-8	-9.424640E-3
9.380000E-8	-9.419501E-3
9.385000E-8	-9.426353E-3
9.390000E-8	-9.440056E-3
9.395000E-8	-9.443482E-3
9.400000E-8	-9.448621E-3
9.405000E-8	-9.474315E-3
9.410000E-8	-9.508574E-3
9.415000E-8	-9.534269E-3
9.420000E-8	-9.551398E-3
9.425000E-8	-9.544546E-3
9.430000E-8	-9.505149E-3
9.435000E-8	-9.462325E-3
9.440000E-8	-9.441769E-3
9.445000E-8	-9.426353E-3
9.450000E-8	-9.407510E-3
9.455000E-8	-9.409223E-3
9.460000E-8	-9.436631E-3
9.465000E-8	-9.477741E-3
9.470000E-8	-9.546259E-3
9.475000E-8	-9.650749E-3
9.480000E-8	-9.760378E-3
9.485000E-8	-9.861442E-3
9.490000E-8	-9.957367E-3
9.495000E-8	-1.003102E-2
9.500000E-8	-1.006357E-2
9.505000E-8	-1.006186E-2
9.510000E-8	-1.004644E-2
9.515000E-8	-1.002075E-2
9.520000E-8	-9.969358E-3
9.525000E-8	-9.892275E-3
9.530000E-8	-9.810054E-3
9.535000E-8	-9.732971E-3
9.540000E-8	-9.659314E-3
9.545000E-8	-9.604500E-3
9.550000E-8	-9.583944E-3
9.555000E-8	-9.580518E-3
9.560000E-8	-9.578805E-3
9.565000E-8	-9.587370E-3
9.570000E-8	-9.601074E-3
9.575000E-8	-9.604500E-3
9.580000E-8	-9.606213E-3
9.585000E-8	-9.609638E-3
9.590000E-8	-9.599361E-3
9.595000E-8	-9.582231E-3
9.600000E-8	-9.573667E-3
9.605000E-8	-9.556537E-3
9.610000E-8	-9.529130E-3
9.615000E-8	-9.529130E-3
9.620000E-8	-9.565102E-3
9.625000E-8	-9.602787E-3
9.630000E-8	-9.638759E-3
9.635000E-8	-9.691860E-3
9.640000E-8	-9.748387E-3
9.645000E-8	-9.777508E-3
9.650000E-8	-9.786072E-3
9.655000E-8	-9.762091E-3
9.660000E-8	-9.698712E-3
9.665000E-8	-9.628481E-3
9.670000E-8	-9.563389E-3
9.675000E-8	-9.482880E-3
9.680000E-8	-9.390381E-3
9.685000E-8	-9.320150E-3
9.690000E-8	-9.277326E-3
9.695000E-8	-9.236215E-3
9.700000E-8	-9.200243E-3
9.705000E-8	-9.195105E-3
9.710000E-8	-9.222512E-3
9.715000E-8	-9.261910E-3
9.720000E-8	-9.285891E-3
9.725000E-8	-9.306446E-3
9.730000E-8	-9.335566E-3
9.735000E-8	-9.364687E-3
9.740000E-8	-9.364687E-3
9.745000E-8	-9.362974E-3
9.750000E-8	-9.385242E-3
9.755000E-8	-9.412649E-3
9.760000E-8	-9.431492E-3
9.765000E-8	-9.470890E-3
9.770000E-8	-9.525704E-3
9.775000E-8	-9.547972E-3
9.780000E-8	-9.535982E-3
9.785000E-8	-9.537695E-3
9.790000E-8	-9.563389E-3
9.795000E-8	-9.585657E-3
9.800000E-8	-9.589083E-3
9.805000E-8	-9.585657E-3
9.810000E-8	-9.583944E-3
9.815000E-8	-9.553111E-3
9.820000E-8	-9.489732E-3
9.825000E-8	-9.436631E-3
9.830000E-8	-9.414362E-3
9.835000E-8	-9.388668E-3
9.840000E-8	-9.337279E-3
9.845000E-8	-9.308159E-3
9.850000E-8	-9.297882E-3
9.855000E-8	-9.265336E-3
9.860000E-8	-9.229364E-3
9.865000E-8	-9.237928E-3
9.870000E-8	-9.268761E-3
9.875000E-8	-9.297882E-3
9.880000E-8	-9.350983E-3
9.885000E-8	-9.422927E-3
9.890000E-8	-9.470890E-3
9.895000E-8	-9.494871E-3
9.900000E-8	-9.512000E-3
9.905000E-8	-9.518852E-3
9.910000E-8	-9.512000E-3
9.915000E-8	-9.489732E-3
9.920000E-8	-9.446908E-3
9.925000E-8	-9.385242E-3
9.930000E-8	-9.316724E-3
9.935000E-8	-9.229364E-3
9.940000E-8	-9.143716E-3
9.945000E-8	-9.100892E-3
9.950000E-8	-9.092328E-3
9.955000E-8	-9.080337E-3
9.960000E-8	-9.092328E-3
9.965000E-8	-9.157420E-3
9.970000E-8	-9.244780E-3
9.975000E-8	-9.342418E-3
9.980000E-8	-9.479454E-3
9.985000E-8	-9.631907E-3
9.990000E-8	-9.734684E-3
9.995000E-8	-9.780933E-3
1.000000E-7	-9.808341E-3
1.000500E-7	-9.828896E-3
1.001000E-7	-9.832322E-3
1.001500E-7	-9.825470E-3
1.002000E-7	-9.816905E-3
1.002500E-7	-9.811767E-3
1.003000E-7	-9.789498E-3
1.003500E-7	-9.743249E-3
1.004000E-7	-9.690147E-3
1.004500E-7	-9.654175E-3
1.005000E-7	-9.616490E-3
1.005500E-7	-9.577092E-3
1.006000E-7	-9.559963E-3
1.006500E-7	-9.539408E-3
1.007000E-7	-9.481167E-3
1.007500E-7	-9.400659E-3
1.008000E-7	-9.338992E-3
1.008500E-7	-9.297882E-3
1.009000E-7	-9.272187E-3
1.009500E-7	-9.255058E-3
1.010000E-7	-9.237928E-3
1.010500E-7	-9.232789E-3
1.011000E-7	-9.243067E-3
1.011500E-7	-9.248206E-3
1.012000E-7	-9.246493E-3
1.012500E-7	-9.275613E-3
1.013000E-7	-9.335566E-3
1.013500E-7	-9.402372E-3
1.014000E-7	-9.472602E-3
1.014500E-7	-9.539408E-3
1.015000E-7	-9.578805E-3
1.015500E-7	-9.590796E-3
1.016000E-7	-9.599361E-3
1.016500E-7	-9.585657E-3
1.017000E-7	-9.532556E-3
1.017500E-7	-9.453760E-3
1.018000E-7	-9.369825E-3
1.018500E-7	-9.299595E-3
1.019000E-7	-9.241354E-3
1.019500E-7	-9.186540E-3
1.020000E-7	-9.142003E-3
1.020500E-7	-9.135151E-3
1.021000E-7	-9.174549E-3
1.021500E-7	-9.231077E-3
1.022000E-7	-9.289317E-3
1.022500E-7	-9.354409E-3
1.023000E-7	-9.414362E-3
1.023500E-7	-9.464038E-3
1.024000E-7	-9.523991E-3
1.024500E-7	-9.594222E-3
1.025000E-7	-9.654175E-3
1.025500E-7	-9.695286E-3
1.026000E-7	-9.732971E-3
1.026500E-7	-9.774082E-3
1.027000E-7	-9.810054E-3
1.027500E-7	-9.834035E-3
1.028000E-7	-9.842600E-3
1.028500E-7	-9.842600E-3
1.029000E-7	-9.837461E-3
1.029500E-7	-9.823757E-3
1.030000E-7	-9.794637E-3
1.030500E-7	-9.756952E-3
1.031000E-7	-9.732971E-3
1.031500E-7	-9.741536E-3
1.032000E-7	-9.765517E-3
1.032500E-7	-9.786072E-3
1.033000E-7	-9.806628E-3
1.033500E-7	-9.835748E-3
1.034000E-7	-9.868294E-3
1.034500E-7	-9.893988E-3
1.035000E-7	-9.923108E-3
1.035500E-7	-9.950516E-3
1.036000E-7	-9.952228E-3
1.036500E-7	-9.911118E-3
1.037000E-7	-9.844313E-3
1.037500E-7	-9.770656E-3
1.038000E-7	-9.666166E-3
1.038500E-7	-9.541120E-3
1.039000E-7	-9.453760E-3
1.039500E-7	-9.440056E-3
1.040000E-7	-9.457186E-3
1.040500E-7	-9.476028E-3
1.041000E-7	-9.503436E-3
1.041500E-7	-9.541120E-3
1.042000E-7	-9.571954E-3
1.042500E-7	-9.607926E-3
1.043000E-7	-9.664453E-3
1.043500E-7	-9.720980E-3
1.044000E-7	-9.753526E-3
1.044500E-7	-9.772369E-3
1.045000E-7	-9.786072E-3
1.045500E-7	-9.789498E-3
1.046000E-7	-9.782646E-3
1.046500E-7	-9.786072E-3
1.047000E-7	-9.825470E-3
1.047500E-7	-9.885423E-3
1.048000E-7	-9.924821E-3
1.048500E-7	-9.929960E-3
1.049000E-7	-9.928247E-3
1.049500E-7	-9.921395E-3
1.050000E-7	-9.895701E-3
1.050500E-7	-9.861442E-3
1.051000E-7	-9.854590E-3
1.051500E-7	-9.866581E-3
1.052000E-7	-9.870007E-3
1.052500E-7	-9.864868E-3
1.053000E-7	-9.880285E-3
1.053500E-7	-9.899127E-3
1.054000E-7	-9.887136E-3
1.054500E-7	-9.854590E-3
1.055000E-7	-9.835748E-3
1.055500E-7	-9.808341E-3
1.056000E-7	-9.758665E-3
1.056500E-7	-9.707277E-3
1.057000E-7	-9.669592E-3
1.057500E-7	-9.633620E-3
1.058000E-7	-9.611351E-3
1.058500E-7	-9.602787E-3
1.059000E-7	-9.594222E-3
1.059500E-7	-9.578805E-3
1.060000E-7	-9.571954E-3
1.060500E-7	-9.559963E-3
1.061000E-7	-9.527417E-3
1.061500E-7	-9.474315E-3
1.062000E-7	-9.388668E-3
1.062500E-7	-9.273900E-3
1.063000E-7	-9.167697E-3
1.063500E-7	-9.078624E-3
1.064000E-7	-9.003254E-3
1.064500E-7	-8.950153E-3
1.065000E-7	-8.945014E-3
1.065500E-7	-8.984412E-3
1.066000E-7	-9.054643E-3
1.066500E-7	-9.160846E-3
1.067000E-7	-9.296169E-3
1.067500E-7	-9.426353E-3
1.068000E-7	-9.517139E-3
1.068500E-7	-9.549685E-3
1.069000E-7	-9.541120E-3
1.069500E-7	-9.510287E-3
1.070000E-7	-9.458899E-3
1.070500E-7	-9.395520E-3
1.071000E-7	-9.352696E-3
1.071500E-7	-9.325289E-3
1.072000E-7	-9.284178E-3
1.072500E-7	-9.251632E-3
1.073000E-7	-9.272187E-3
1.073500E-7	-9.323576E-3
1.074000E-7	-9.368113E-3
1.074500E-7	-9.431492E-3
1.075000E-7	-9.518852E-3
1.075500E-7	-9.577092E-3
1.076000E-7	-9.575379E-3
1.076500E-7	-9.554824E-3
1.077000E-7	-9.532556E-3
1.077500E-7	-9.508574E-3
1.078000E-7	-9.503436E-3
1.078500E-7	-9.541120E-3
1.079000E-7	-9.597648E-3
1.079500E-7	-9.667879E-3
1.080000E-7	-9.751813E-3
1.080500E-7	-9.840887E-3
1.081000E-7	-9.931673E-3
1.081500E-7	-1.003616E-2
1.082000E-7	-1.013723E-2
1.082500E-7	-1.020746E-2
1.083000E-7	-1.025028E-2
1.083500E-7	-1.027598E-2
1.084000E-7	-1.026741E-2
1.084500E-7	-1.022287E-2
1.085000E-7	-1.016635E-2
1.085500E-7	-1.009783E-2
1.086000E-7	-9.998478E-3
1.086500E-7	-9.888849E-3
1.087000E-7	-9.794637E-3
1.087500E-7	-9.705564E-3
1.088000E-7	-9.625055E-3
1.088500E-7	-9.570241E-3
1.089000E-7	-9.522278E-3
1.089500E-7	-9.460612E-3
1.090000E-7	-9.392094E-3
1.090500E-7	-9.332141E-3
1.091000E-7	-9.279039E-3
1.091500E-7	-9.222512E-3
1.092000E-7	-9.155707E-3
1.092500E-7	-9.094041E-3
1.093000E-7	-9.076911E-3
1.093500E-7	-9.087189E-3
1.094000E-7	-9.087189E-3
1.094500E-7	-9.090615E-3
1.095000E-7	-9.124874E-3
1.095500E-7	-9.157420E-3
1.096000E-7	-9.159133E-3
1.096500E-7	-9.176262E-3
1.097000E-7	-9.239641E-3
1.097500E-7	-9.315011E-3
1.098000E-7	-9.381816E-3
1.098500E-7	-9.450334E-3
1.099000E-7	-9.508574E-3
1.099500E-7	-9.541120E-3
1.100000E-7	-9.577092E-3
1.100500E-7	-9.630194E-3
1.101000E-7	-9.673018E-3
1.101500E-7	-9.678156E-3
1.102000E-7	-9.667879E-3
1.102500E-7	-9.669592E-3
1.103000E-7	-9.676444E-3
1.103500E-7	-9.657601E-3
1.104000E-7	-9.606213E-3
1.104500E-7	-9.558250E-3
1.105000E-7	-9.512000E-3
1.105500E-7	-9.446908E-3
1.106000E-7	-9.381816E-3
1.106500E-7	-9.350983E-3
1.107000E-7	-9.344131E-3
1.107500E-7	-9.350983E-3
1.108000E-7	-9.404084E-3
1.108500E-7	-9.517139E-3
1.109000E-7	-9.645610E-3
1.109500E-7	-9.751813E-3
1.110000E-7	-9.847739E-3
1.110500E-7	-9.928247E-3
1.111000E-7	-9.971071E-3
1.111500E-7	-9.971071E-3
1.112000E-7	-9.950516E-3
1.112500E-7	-9.919682E-3
1.113000E-7	-9.863155E-3
1.113500E-7	-9.774082E-3
1.114000E-7	-9.666166E-3
1.114500E-7	-9.577092E-3
1.115000E-7	-9.529130E-3
1.115500E-7	-9.518852E-3
1.116000E-7	-9.517139E-3
1.116500E-7	-9.535982E-3
1.117000E-7	-9.583944E-3
1.117500E-7	-9.633620E-3
1.118000E-7	-9.667879E-3
1.118500E-7	-9.717554E-3
1.119000E-7	-9.796350E-3
1.119500E-7	-9.859729E-3
1.120000E-7	-9.897414E-3
1.120500E-7	-9.923108E-3
1.121000E-7	-9.926534E-3
1.121500E-7	-9.881998E-3
1.122000E-7	-9.813480E-3
1.122500E-7	-9.770656E-3
1.123000E-7	-9.762091E-3
1.123500E-7	-9.765517E-3
1.124000E-7	-9.767230E-3
1.124500E-7	-9.777508E-3
1.125000E-7	-9.794637E-3
1.125500E-7	-9.799776E-3
1.126000E-7	-9.780933E-3
1.126500E-7	-9.751813E-3
1.127000E-7	-9.714128E-3
1.127500E-7	-9.649036E-3
1.128000E-7	-9.568528E-3
1.128500E-7	-9.501723E-3
1.129000E-7	-9.458899E-3
1.129500E-7	-9.441769E-3
1.130000E-7	-9.434918E-3
1.130500E-7	-9.414362E-3
1.131000E-7	-9.386955E-3
1.131500E-7	-9.364687E-3
1.132000E-7	-9.361261E-3
1.132500E-7	-9.386955E-3
1.133000E-7	-9.440056E-3
1.133500E-7	-9.484593E-3
1.134000E-7	-9.510287E-3
1.134500E-7	-9.551398E-3
1.135000E-7	-9.594222E-3
1.135500E-7	-9.601074E-3
1.136000E-7	-9.589083E-3
1.136500E-7	-9.604500E-3
1.137000E-7	-9.630194E-3
1.137500E-7	-9.637046E-3
1.138000E-7	-9.623342E-3
1.138500E-7	-9.619916E-3
1.139000E-7	-9.635333E-3
1.139500E-7	-9.662740E-3
1.140000E-7	-9.678156E-3
1.140500E-7	-9.676444E-3
1.141000E-7	-9.666166E-3
1.141500E-7	-9.638759E-3
1.142000E-7	-9.570241E-3
1.142500E-7	-9.493158E-3
1.143000E-7	-9.443482E-3
1.143500E-7	-9.398946E-3
1.144000E-7	-9.335566E-3
1.144500E-7	-9.280752E-3
1.145000E-7	-9.248206E-3
1.145500E-7	-9.215660E-3
1.146000E-7	-9.181401E-3
1.146500E-7	-9.181401E-3
1.147000E-7	-9.229364E-3
1.147500E-7	-9.301307E-3
1.148000E-7	-9.369825E-3
1.148500E-7	-9.429779E-3
1.149000E-7	-9.482880E-3
1.149500E-7	-9.518852E-3
1.150000E-7	-9.529130E-3
1.150500E-7	-9.539408E-3
1.151000E-7	-9.566815E-3
1.151500E-7	-9.587370E-3
1.152000E-7	-9.571954E-3
1.152500E-7	-9.551398E-3
1.153000E-7	-9.553111E-3
1.153500E-7	-9.554824E-3
1.154000E-7	-9.542833E-3
1.154500E-7	-9.551398E-3
1.155000E-7	-9.597648E-3
1.155500E-7	-9.645610E-3
1.156000E-7	-9.676444E-3
1.156500E-7	-9.710703E-3
1.157000E-7	-9.753526E-3
1.157500E-7	-9.774082E-3
1.158000E-7	-9.782646E-3
1.158500E-7	-9.791211E-3
1.159000E-7	-9.791211E-3
1.159500E-7	-9.763804E-3
1.160000E-7	-9.705564E-3
1.160500E-7	-9.635333E-3
1.161000E-7	-9.582231E-3
1.161500E-7	-9.553111E-3
1.162000E-7	-9.530843E-3
1.162500E-7	-9.523991E-3
1.163000E-7	-9.561676E-3
1.163500E-7	-9.631907E-3
1.164000E-7	-9.685008E-3
1.164500E-7	-9.727832E-3
1.165000E-7	-9.780933E-3
1.165500E-7	-9.839174E-3
1.166000E-7	-9.897414E-3
1.166500E-7	-9.959080E-3
1.167000E-7	-1.001561E-2
1.167500E-7	-1.004644E-2
1.168000E-7	-1.006014E-2
1.168500E-7	-1.004987E-2
1.169000E-7	-1.000190E-2
1.169500E-7	-9.921395E-3
1.170000E-7	-9.808341E-3
1.170500E-7	-9.681582E-3
1.171000E-7	-9.561676E-3
1.171500E-7	-9.455473E-3
1.172000E-7	-9.366400E-3
1.172500E-7	-9.313298E-3
1.173000E-7	-9.296169E-3
1.173500E-7	-9.279039E-3
1.174000E-7	-9.255058E-3
1.174500E-7	-9.263623E-3
1.175000E-7	-9.330428E-3
1.175500E-7	-9.421214E-3
1.176000E-7	-9.486306E-3
1.176500E-7	-9.523991E-3
1.177000E-7	-9.568528E-3
1.177500E-7	-9.626768E-3
1.178000E-7	-9.671305E-3
1.178500E-7	-9.698712E-3
1.179000E-7	-9.720980E-3
1.179500E-7	-9.729545E-3
1.180000E-7	-9.708990E-3
1.180500E-7	-9.674731E-3
1.181000E-7	-9.645610E-3
1.181500E-7	-9.619916E-3
1.182000E-7	-9.587370E-3
1.182500E-7	-9.565102E-3
1.183000E-7	-9.556537E-3
1.183500E-7	-9.535982E-3
1.184000E-7	-9.505149E-3
1.184500E-7	-9.496584E-3
1.185000E-7	-9.503436E-3
1.185500E-7	-9.503436E-3
1.186000E-7	-9.506861E-3
1.186500E-7	-9.542833E-3
1.187000E-7	-9.585657E-3
1.187500E-7	-9.601074E-3
1.188000E-7	-9.606213E-3
1.188500E-7	-9.630194E-3
1.189000E-7	-9.652462E-3
1.189500E-7	-9.659314E-3
1.190000E-7	-9.667879E-3
1.190500E-7	-9.695286E-3
1.191000E-7	-9.727832E-3
1.191500E-7	-9.738110E-3
1.192000E-7	-9.729545E-3
1.192500E-7	-9.734684E-3
1.193000E-7	-9.755239E-3
1.193500E-7	-9.750100E-3
1.194000E-7	-9.719267E-3
1.194500E-7	-9.703851E-3
1.195000E-7	-9.693573E-3
1.195500E-7	-9.642185E-3
1.196000E-7	-9.565102E-3
1.196500E-7	-9.517139E-3
1.197000E-7	-9.491445E-3
1.197500E-7	-9.457186E-3
1.198000E-7	-9.431492E-3
1.198500E-7	-9.433205E-3
1.199000E-7	-9.436631E-3
1.199500E-7	-9.441769E-3
1.200000E-7	-9.458899E-3
1.200500E-7	-9.484593E-3
1.201000E-7	-9.515426E-3
1.201500E-7	-9.559963E-3
1.202000E-7	-9.602787E-3
1.202500E-7	-9.633620E-3
1.203000E-7	-9.661027E-3
1.203500E-7	-9.671305E-3
1.204000E-7	-9.650749E-3
1.204500E-7	-9.630194E-3
1.205000E-7	-9.625055E-3
1.205500E-7	-9.613064E-3
1.206000E-7	-9.602787E-3
1.206500E-7	-9.618203E-3
1.207000E-7	-9.621629E-3
1.207500E-7	-9.573667E-3
1.208000E-7	-9.517139E-3
1.208500E-7	-9.494871E-3
1.209000E-7	-9.503436E-3
1.209500E-7	-9.506861E-3
1.210000E-7	-9.510287E-3
1.210500E-7	-9.539408E-3
1.211000E-7	-9.597648E-3
1.211500E-7	-9.642185E-3
1.212000E-7	-9.659314E-3
1.212500E-7	-9.693573E-3
1.213000E-7	-9.755239E-3
1.213500E-7	-9.801489E-3
1.214000E-7	-9.822044E-3
1.214500E-7	-9.839174E-3
1.215000E-7	-9.840887E-3
1.215500E-7	-9.808341E-3
1.216000E-7	-9.743249E-3
1.216500E-7	-9.649036E-3
1.217000E-7	-9.544546E-3
1.217500E-7	-9.452047E-3
1.218000E-7	-9.376677E-3
1.218500E-7	-9.311585E-3
1.219000E-7	-9.268761E-3
1.219500E-7	-9.249919E-3
1.220000E-7	-9.258484E-3
1.220500E-7	-9.301307E-3
1.221000E-7	-9.386955E-3
1.221500E-7	-9.493158E-3
1.222000E-7	-9.607926E-3
1.222500E-7	-9.741536E-3
1.223000E-7	-9.871720E-3
1.223500E-7	-9.955654E-3
1.224000E-7	-9.993339E-3
1.224500E-7	-1.003616E-2
1.225000E-7	-1.008413E-2
1.225500E-7	-1.009612E-2
1.226000E-7	-1.007042E-2
1.226500E-7	-1.006014E-2
1.227000E-7	-1.007213E-2
1.227500E-7	-1.008070E-2
1.228000E-7	-1.009783E-2
1.228500E-7	-1.014579E-2
1.229000E-7	-1.018176E-2
1.229500E-7	-1.016977E-2
1.230000E-7	-1.014065E-2
1.230500E-7	-1.012352E-2
1.231000E-7	-1.010468E-2
1.231500E-7	-1.003959E-2
1.232000E-7	-9.940238E-3
1.232500E-7	-9.842600E-3
1.233000E-7	-9.744962E-3
1.233500E-7	-9.631907E-3
1.234000E-7	-9.537695E-3
1.234500E-7	-9.494871E-3
1.235000E-7	-9.481167E-3
1.235500E-7	-9.486306E-3
1.236000E-7	-9.539408E-3
1.236500E-7	-9.613064E-3
1.237000E-7	-9.666166E-3
1.237500E-7	-9.708990E-3
1.238000E-7	-9.750100E-3
1.238500E-7	-9.760378E-3
1.239000E-7	-9.750100E-3
1.239500E-7	-9.748387E-3
1.240000E-7	-9.739823E-3
1.240500E-7	-9.700425E-3
1.241000E-7	-9.659314E-3
1.241500E-7	-9.619916E-3
1.242000E-7	-9.580518E-3
1.242500E-7	-9.561676E-3
1.243000E-7	-9.578805E-3
1.243500E-7	-9.614777E-3
1.244000E-7	-9.673018E-3
1.244500E-7	-9.762091E-3
1.245000E-7	-9.863155E-3
1.245500E-7	-9.950516E-3
1.246000E-7	-1.002246E-2
1.246500E-7	-1.007556E-2
1.247000E-7	-1.009269E-2
1.247500E-7	-1.007385E-2
1.248000E-7	-1.000876E-2
1.248500E-7	-9.921395E-3
1.249000E-7	-9.840887E-3
1.249500E-7	-9.758665E-3
1.250000E-7	-9.666166E-3
1.250500E-7	-9.573667E-3
1.251000E-7	-9.512000E-3
1.251500E-7	-9.470890E-3
1.252000E-7	-9.445195E-3
1.252500E-7	-9.453760E-3
1.253000E-7	-9.503436E-3
1.253500E-7	-9.566815E-3
1.254000E-7	-9.609638E-3
1.254500E-7	-9.642185E-3
1.255000E-7	-9.661027E-3
1.255500E-7	-9.650749E-3
1.256000E-7	-9.621629E-3
1.256500E-7	-9.590796E-3
1.257000E-7	-9.549685E-3
1.257500E-7	-9.498297E-3
1.258000E-7	-9.467464E-3
1.258500E-7	-9.462325E-3
1.259000E-7	-9.481167E-3
1.259500E-7	-9.537695E-3
1.260000E-7	-9.625055E-3
1.260500E-7	-9.717554E-3
1.261000E-7	-9.811767E-3
1.261500E-7	-9.900840E-3
1.262000E-7	-9.972784E-3
1.262500E-7	-1.002246E-2
1.263000E-7	-1.004644E-2
1.263500E-7	-1.003274E-2
1.264000E-7	-9.965932E-3
1.264500E-7	-9.859729E-3
1.265000E-7	-9.748387E-3
1.265500E-7	-9.628481E-3
1.266000E-7	-9.500010E-3
1.266500E-7	-9.398946E-3
1.267000E-7	-9.361261E-3
1.267500E-7	-9.368113E-3
1.268000E-7	-9.381816E-3
1.268500E-7	-9.395520E-3
1.269000E-7	-9.419501E-3
1.269500E-7	-9.429779E-3
1.270000E-7	-9.421214E-3
1.270500E-7	-9.404084E-3
1.271000E-7	-9.385242E-3
1.271500E-7	-9.361261E-3
1.272000E-7	-9.342418E-3
1.272500E-7	-9.327002E-3
1.273000E-7	-9.306446E-3
1.273500E-7	-9.279039E-3
1.274000E-7	-9.267048E-3
1.274500E-7	-9.282465E-3
1.275000E-7	-9.311585E-3
1.275500E-7	-9.345844E-3
1.276000E-7	-9.397233E-3
1.276500E-7	-9.457186E-3
1.277000E-7	-9.512000E-3
1.277500E-7	-9.544546E-3
1.278000E-7	-9.556537E-3
1.278500E-7	-9.553111E-3
1.279000E-7	-9.559963E-3
1.279500E-7	-9.578805E-3
1.280000E-7	-9.590796E-3
1.280500E-7	-9.594222E-3
1.281000E-7	-9.601074E-3
1.281500E-7	-9.613064E-3
1.282000E-7	-9.630194E-3
1.282500E-7	-9.659314E-3
1.283000E-7	-9.700425E-3
1.283500E-7	-9.734684E-3
1.284000E-7	-9.760378E-3
1.284500E-7	-9.782646E-3
1.285000E-7	-9.799776E-3
1.285500E-7	-9.794637E-3
1.286000E-7	-9.750100E-3
1.286500E-7	-9.676444E-3
1.287000E-7	-9.597648E-3
1.287500E-7	-9.510287E-3
1.288000E-7	-9.405797E-3
1.288500E-7	-9.316724E-3
1.289000E-7	-9.255058E-3
1.289500E-7	-9.207095E-3
1.290000E-7	-9.171123E-3
1.290500E-7	-9.155707E-3
1.291000E-7	-9.148855E-3
1.291500E-7	-9.159133E-3
1.292000E-7	-9.191679E-3
1.292500E-7	-9.248206E-3
1.293000E-7	-9.316724E-3
1.293500E-7	-9.388668E-3
1.294000E-7	-9.440056E-3
1.294500E-7	-9.462325E-3
1.295000E-7	-9.464038E-3
1.295500E-7	-9.445195E-3
1.296000E-7	-9.404084E-3
1.296500E-7	-9.362974E-3
1.297000E-7	-9.347557E-3
1.297500E-7	-9.344131E-3
1.298000E-7	-9.335566E-3
1.298500E-7	-9.332141E-3
1.299000E-7	-9.356122E-3
1.299500E-7	-9.393807E-3
1.300000E-7	-9.429779E-3
1.300500E-7	-9.489732E-3
1.301000E-7	-9.583944E-3
1.301500E-7	-9.667879E-3
1.302000E-7	-9.715841E-3
1.302500E-7	-9.763804E-3
1.303000E-7	-9.820331E-3
1.303500E-7	-9.847739E-3
1.304000E-7	-9.837461E-3
1.304500E-7	-9.813480E-3
1.305000E-7	-9.782646E-3
1.305500E-7	-9.748387E-3
1.306000E-7	-9.724406E-3
1.306500E-7	-9.693573E-3
1.307000E-7	-9.662740E-3
1.307500E-7	-9.652462E-3
1.308000E-7	-9.671305E-3
1.308500E-7	-9.705564E-3
1.309000E-7	-9.762091E-3
1.309500E-7	-9.839174E-3
1.310000E-7	-9.921395E-3
1.310500E-7	-1.000190E-2
1.311000E-7	-1.007385E-2
1.311500E-7	-1.011153E-2
1.312000E-7	-1.011496E-2
1.312500E-7	-1.011838E-2
1.313000E-7	-1.012181E-2
1.313500E-7	-1.010126E-2
1.314000E-7	-1.005843E-2
1.314500E-7	-1.000019E-2
1.315000E-7	-9.916257E-3
1.315500E-7	-9.822044E-3
1.316000E-7	-9.762091E-3
1.316500E-7	-9.753526E-3
1.317000E-7	-9.760378E-3
1.317500E-7	-9.765517E-3
1.318000E-7	-9.786072E-3
1.318500E-7	-9.794637E-3
1.319000E-7	-9.775795E-3
1.319500E-7	-9.756952E-3
1.320000E-7	-9.748387E-3
1.320500E-7	-9.736397E-3
1.321000E-7	-9.724406E-3
1.321500E-7	-9.705564E-3
1.322000E-7	-9.662740E-3
1.322500E-7	-9.601074E-3
1.323000E-7	-9.544546E-3
1.323500E-7	-9.470890E-3
1.324000E-7	-9.393807E-3
1.324500E-7	-9.364687E-3
1.325000E-7	-9.388668E-3
1.325500E-7	-9.436631E-3
1.326000E-7	-9.500010E-3
1.326500E-7	-9.589083E-3
1.327000E-7	-9.695286E-3
1.327500E-7	-9.787785E-3
1.328000E-7	-9.854590E-3
1.328500E-7	-9.902553E-3
1.329000E-7	-9.940238E-3
1.329500E-7	-9.941951E-3
1.330000E-7	-9.899127E-3
1.330500E-7	-9.842600E-3
1.331000E-7	-9.799776E-3
1.331500E-7	-9.760378E-3
1.332000E-7	-9.717554E-3
1.332500E-7	-9.679869E-3
1.333000E-7	-9.662740E-3
1.333500E-7	-9.657601E-3
1.334000E-7	-9.666166E-3
1.334500E-7	-9.679869E-3
1.335000E-7	-9.688434E-3
1.335500E-7	-9.686721E-3
1.336000E-7	-9.661027E-3
1.336500E-7	-9.613064E-3
1.337000E-7	-9.553111E-3
1.337500E-7	-9.482880E-3
1.338000E-7	-9.404084E-3
1.338500E-7	-9.338992E-3
1.339000E-7	-9.299595E-3
1.339500E-7	-9.265336E-3
1.340000E-7	-9.237928E-3
1.340500E-7	-9.236215E-3
1.341000E-7	-9.273900E-3
1.341500E-7	-9.340705E-3
1.342000E-7	-9.410936E-3
1.342500E-7	-9.472602E-3
1.343000E-7	-9.537695E-3
1.343500E-7	-9.613064E-3
1.344000E-7	-9.669592E-3
1.344500E-7	-9.686721E-3
1.345000E-7	-9.705564E-3
1.345500E-7	-9.727832E-3
1.346000E-7	-9.722693E-3
1.346500E-7	-9.702138E-3
1.347000E-7	-9.702138E-3
1.347500E-7	-9.693573E-3
1.348000E-7	-9.649036E-3
1.348500E-7	-9.614777E-3
1.349000E-7	-9.614777E-3
1.349500E-7	-9.604500E-3
1.350000E-7	-9.566815E-3
1.350500E-7	-9.541120E-3
1.351000E-7	-9.539408E-3
1.351500E-7	-9.529130E-3
1.352000E-7	-9.496584E-3
1.352500E-7	-9.472602E-3
1.353000E-7	-9.469177E-3
1.353500E-7	-9.470890E-3
1.354000E-7	-9.465751E-3
1.354500E-7	-9.460612E-3
1.355000E-7	-9.450334E-3
1.355500E-7	-9.424640E-3
1.356000E-7	-9.393807E-3
1.356500E-7	-9.368113E-3
1.357000E-7	-9.337279E-3
1.357500E-7	-9.315011E-3
1.358000E-7	-9.328715E-3
1.358500E-7	-9.376677E-3
1.359000E-7	-9.410936E-3
1.359500E-7	-9.428066E-3
1.360000E-7	-9.428066E-3
1.360500E-7	-9.419501E-3
1.361000E-7	-9.409223E-3
1.361500E-7	-9.383529E-3
1.362000E-7	-9.316724E-3
1.362500E-7	-9.237928E-3
1.363000E-7	-9.198530E-3
1.363500E-7	-9.159133E-3
1.364000E-7	-9.088902E-3
1.364500E-7	-9.042652E-3
1.365000E-7	-9.039226E-3
1.365500E-7	-9.018671E-3
1.366000E-7	-8.996402E-3
1.366500E-7	-9.027235E-3
1.367000E-7	-9.066633E-3
1.367500E-7	-9.059782E-3
1.368000E-7	-9.054643E-3
1.368500E-7	-9.075198E-3
1.369000E-7	-9.078624E-3
1.369500E-7	-9.064920E-3
1.370000E-7	-9.073485E-3
1.370500E-7	-9.114596E-3
1.371000E-7	-9.172836E-3
1.371500E-7	-9.248206E-3
1.372000E-7	-9.328715E-3
1.372500E-7	-9.410936E-3
1.373000E-7	-9.522278E-3
1.373500E-7	-9.654175E-3
1.374000E-7	-9.763804E-3
1.374500E-7	-9.839174E-3
1.375000E-7	-9.892275E-3
1.375500E-7	-9.902553E-3
1.376000E-7	-9.858016E-3
1.376500E-7	-9.789498E-3
1.377000E-7	-9.720980E-3
1.377500E-7	-9.645610E-3
1.378000E-7	-9.566815E-3
1.378500E-7	-9.506861E-3
1.379000E-7	-9.464038E-3
1.379500E-7	-9.450334E-3
1.380000E-7	-9.479454E-3
1.380500E-7	-9.527417E-3
1.381000E-7	-9.580518E-3
1.381500E-7	-9.654175E-3
1.382000E-7	-9.739823E-3
1.382500E-7	-9.811767E-3
1.383000E-7	-9.849451E-3
1.383500E-7	-9.840887E-3
1.384000E-7	-9.799776E-3
1.384500E-7	-9.774082E-3
1.385000E-7	-9.755239E-3
1.385500E-7	-9.698712E-3
1.386000E-7	-9.618203E-3
1.386500E-7	-9.556537E-3
1.387000E-7	-9.494871E-3
1.387500E-7	-9.421214E-3
1.388000E-7	-9.368113E-3
1.388500E-7	-9.344131E-3
1.389000E-7	-9.350983E-3
1.389500E-7	-9.405797E-3
1.390000E-7	-9.486306E-3
1.390500E-7	-9.553111E-3
1.391000E-7	-9.621629E-3
1.391500E-7	-9.719267E-3
1.392000E-7	-9.794637E-3
1.392500E-7	-9.822044E-3
1.393000E-7	-9.842600E-3
1.393500E-7	-9.856303E-3
1.394000E-7	-9.828896E-3
1.394500E-7	-9.767230E-3
1.395000E-7	-9.712415E-3
1.395500E-7	-9.659314E-3
1.396000E-7	-9.602787E-3
1.396500E-7	-9.547972E-3
1.397000E-7	-9.503436E-3
1.397500E-7	-9.469177E-3
1.398000E-7	-9.440056E-3
1.398500E-7	-9.417788E-3
1.399000E-7	-9.419501E-3
1.399500E-7	-9.443482E-3
1.400000E-7	-9.477741E-3
1.400500E-7	-9.515426E-3
1.401000E-7	-9.559963E-3
1.401500E-7	-9.594222E-3
1.402000E-7	-9.599361E-3
1.402500E-7	-9.592509E-3
1.403000E-7	-9.595935E-3
1.403500E-7	-9.618203E-3
1.404000E-7	-9.640472E-3
1.404500E-7	-9.662740E-3
1.405000E-7	-9.678156E-3
1.405500E-7	-9.678156E-3
1.406000E-7	-9.666166E-3
1.406500E-7	-9.688434E-3
1.407000E-7	-9.751813E-3
1.407500E-7	-9.810054E-3
1.408000E-7	-9.839174E-3
1.408500E-7	-9.864868E-3
1.409000E-7	-9.895701E-3
1.409500E-7	-9.911118E-3
1.410000E-7	-9.883710E-3
1.410500E-7	-9.828896E-3
1.411000E-7	-9.780933E-3
1.411500E-7	-9.751813E-3
1.412000E-7	-9.719267E-3
1.412500E-7	-9.679869E-3
1.413000E-7	-9.678156E-3
1.413500E-7	-9.703851E-3
1.414000E-7	-9.736397E-3
1.414500E-7	-9.794637E-3
1.415000E-7	-9.893988E-3
1.415500E-7	-1.000704E-2
1.416000E-7	-1.012181E-2
1.416500E-7	-1.024172E-2
1.417000E-7	-1.032908E-2
1.417500E-7	-1.035648E-2
1.418000E-7	-1.033936E-2
1.418500E-7	-1.028454E-2
1.419000E-7	-1.019033E-2
1.419500E-7	-1.007899E-2
1.420000E-7	-9.962506E-3
1.420500E-7	-9.835748E-3
1.421000E-7	-9.724406E-3
1.421500E-7	-9.631907E-3
1.422000E-7	-9.535982E-3
1.422500E-7	-9.458899E-3
1.423000E-7	-9.434918E-3
1.423500E-7	-9.446908E-3
1.424000E-7	-9.455473E-3
1.424500E-7	-9.476028E-3
1.425000E-7	-9.513713E-3
1.425500E-7	-9.547972E-3
1.426000E-7	-9.547972E-3
1.426500E-7	-9.535982E-3
1.427000E-7	-9.532556E-3
1.427500E-7	-9.527417E-3
1.428000E-7	-9.508574E-3
1.428500E-7	-9.494871E-3
1.429000E-7	-9.503436E-3
1.429500E-7	-9.506861E-3
1.430000E-7	-9.501723E-3
1.430500E-7	-9.503436E-3
1.431000E-7	-9.508574E-3
1.431500E-7	-9.506861E-3
1.432000E-7	-9.523991E-3
1.432500E-7	-9.559963E-3
1.433000E-7	-9.578805E-3
1.433500E-7	-9.582231E-3
1.434000E-7	-9.585657E-3
1.434500E-7	-9.575379E-3
1.435000E-7	-9.549685E-3
1.435500E-7	-9.541120E-3
1.436000E-7	-9.534269E-3
1.436500E-7	-9.505149E-3
1.437000E-7	-9.476028E-3
1.437500E-7	-9.469177E-3
1.438000E-7	-9.460612E-3
1.438500E-7	-9.467464E-3
1.439000E-7	-9.539408E-3
1.439500E-7	-9.652462E-3
1.440000E-7	-9.753526E-3
1.440500E-7	-9.866581E-3
1.441000E-7	-9.991626E-3
1.441500E-7	-1.007213E-2
1.442000E-7	-1.010297E-2
1.442500E-7	-1.011838E-2
1.443000E-7	-1.010811E-2
1.443500E-7	-1.004473E-2
1.444000E-7	-9.969358E-3
1.444500E-7	-9.904266E-3
1.445000E-7	-9.823757E-3
1.445500E-7	-9.729545E-3
1.446000E-7	-9.654175E-3
1.446500E-7	-9.601074E-3
1.447000E-7	-9.571954E-3
1.447500E-7	-9.585657E-3
1.448000E-7	-9.633620E-3
1.448500E-7	-9.702138E-3
1.449000E-7	-9.791211E-3
1.449500E-7	-9.888849E-3
1.450000E-7	-9.969358E-3
1.450500E-7	-1.002075E-2
1.451000E-7	-1.004130E-2
1.451500E-7	-1.001903E-2
1.452000E-7	-9.972784E-3
1.452500E-7	-9.938525E-3
1.453000E-7	-9.883710E-3
1.453500E-7	-9.784359E-3
1.454000E-7	-9.685008E-3
1.454500E-7	-9.631907E-3
1.455000E-7	-9.595935E-3
1.455500E-7	-9.549685E-3
1.456000E-7	-9.512000E-3
1.456500E-7	-9.503436E-3
1.457000E-7	-9.503436E-3
1.457500E-7	-9.479454E-3
1.458000E-7	-9.436631E-3
1.458500E-7	-9.395520E-3
1.459000E-7	-9.374964E-3
1.459500E-7	-9.369825E-3
1.460000E-7	-9.368113E-3
1.460500E-7	-9.362974E-3
1.461000E-7	-9.359548E-3
1.461500E-7	-9.368113E-3
1.462000E-7	-9.376677E-3
1.462500E-7	-9.393807E-3
1.463000E-7	-9.443482E-3
1.463500E-7	-9.523991E-3
1.464000E-7	-9.594222E-3
1.464500E-7	-9.637046E-3
1.465000E-7	-9.666166E-3
1.465500E-7	-9.676444E-3
1.466000E-7	-9.652462E-3
1.466500E-7	-9.619916E-3
1.467000E-7	-9.592509E-3
1.467500E-7	-9.534269E-3
1.468000E-7	-9.460612E-3
1.468500E-7	-9.424640E-3
1.469000E-7	-9.443482E-3
1.469500E-7	-9.469177E-3
1.470000E-7	-9.493158E-3
1.470500E-7	-9.549685E-3
1.471000E-7	-9.650749E-3
1.471500E-7	-9.741536E-3
1.472000E-7	-9.794637E-3
1.472500E-7	-9.825470E-3
1.473000E-7	-9.852877E-3
1.473500E-7	-9.863155E-3
1.474000E-7	-9.837461E-3
1.474500E-7	-9.782646E-3
1.475000E-7	-9.702138E-3
1.475500E-7	-9.594222E-3
1.476000E-7	-9.472602E-3
1.476500E-7	-9.366400E-3
1.477000E-7	-9.303020E-3
1.477500E-7	-9.289317E-3
1.478000E-7	-9.315011E-3
1.478500E-7	-9.366400E-3
1.479000E-7	-9.429779E-3
1.479500E-7	-9.512000E-3
1.480000E-7	-9.602787E-3
1.480500E-7	-9.695286E-3
1.481000E-7	-9.775795E-3
1.481500E-7	-9.818618E-3
1.482000E-7	-9.827183E-3
1.482500E-7	-9.834035E-3
1.483000E-7	-9.844313E-3
1.483500E-7	-9.837461E-3
1.484000E-7	-9.813480E-3
1.484500E-7	-9.798063E-3
1.485000E-7	-9.803202E-3
1.485500E-7	-9.822044E-3
1.486000E-7	-9.847739E-3
1.486500E-7	-9.875146E-3
1.487000E-7	-9.893988E-3
1.487500E-7	-9.892275E-3
1.488000E-7	-9.868294E-3
1.488500E-7	-9.816905E-3
1.489000E-7	-9.744962E-3
1.489500E-7	-9.659314E-3
1.490000E-7	-9.556537E-3
1.490500E-7	-9.438343E-3
1.491000E-7	-9.313298E-3
1.491500E-7	-9.207095E-3
1.492000E-7	-9.147142E-3
1.492500E-7	-9.130012E-3
1.493000E-7	-9.162559E-3
1.493500E-7	-9.256771E-3
1.494000E-7	-9.397233E-3
1.494500E-7	-9.518852E-3
1.495000E-7	-9.619916E-3
1.495500E-7	-9.748387E-3
1.496000E-7	-9.892275E-3
1.496500E-7	-1.001903E-2
1.497000E-7	-1.012524E-2
1.497500E-7	-1.022116E-2
1.498000E-7	-1.028111E-2
1.498500E-7	-1.029482E-2
1.499000E-7	-1.028283E-2
1.499500E-7	-1.023487E-2
1.500000E-7	-1.013551E-2
1.500500E-7	-1.003274E-2
1.501000E-7	-9.943664E-3
1.501500E-7	-9.847739E-3
1.502000E-7	-9.736397E-3
1.502500E-7	-9.631907E-3
1.503000E-7	-9.529130E-3
1.503500E-7	-9.417788E-3
1.504000E-7	-9.321863E-3
1.504500E-7	-9.258484E-3
1.505000E-7	-9.217373E-3
1.505500E-7	-9.213947E-3
1.506000E-7	-9.256771E-3
1.506500E-7	-9.318437E-3
1.507000E-7	-9.395520E-3
1.507500E-7	-9.491445E-3
1.508000E-7	-9.582231E-3
1.508500E-7	-9.655888E-3
1.509000E-7	-9.739823E-3
1.509500E-7	-9.820331E-3
1.510000E-7	-9.851164E-3
1.510500E-7	-9.844313E-3
1.511000E-7	-9.820331E-3
1.511500E-7	-9.767230E-3
1.512000E-7	-9.693573E-3
1.512500E-7	-9.647323E-3
1.513000E-7	-9.611351E-3
1.513500E-7	-9.546259E-3
1.514000E-7	-9.474315E-3
1.514500E-7	-9.443482E-3
1.515000E-7	-9.443482E-3
1.515500E-7	-9.452047E-3
1.516000E-7	-9.482880E-3
1.516500E-7	-9.546259E-3
1.517000E-7	-9.638759E-3
1.517500E-7	-9.719267E-3
1.518000E-7	-9.746674E-3
1.518500E-7	-9.736397E-3
1.519000E-7	-9.738110E-3
1.519500E-7	-9.748387E-3
1.520000E-7	-9.736397E-3
1.520500E-7	-9.736397E-3
1.521000E-7	-9.767230E-3
1.521500E-7	-9.780933E-3
1.522000E-7	-9.760378E-3
1.522500E-7	-9.738110E-3
1.523000E-7	-9.714128E-3
1.523500E-7	-9.676444E-3
1.524000E-7	-9.647323E-3
1.524500E-7	-9.643897E-3
1.525000E-7	-9.654175E-3
1.525500E-7	-9.662740E-3
1.526000E-7	-9.662740E-3
1.526500E-7	-9.666166E-3
1.527000E-7	-9.702138E-3
1.527500E-7	-9.750100E-3
1.528000E-7	-9.775795E-3
1.528500E-7	-9.777508E-3
1.529000E-7	-9.791211E-3
1.529500E-7	-9.823757E-3
1.530000E-7	-9.849451E-3
1.530500E-7	-9.866581E-3
1.531000E-7	-9.878572E-3
1.531500E-7	-9.887136E-3
1.532000E-7	-9.892275E-3
1.532500E-7	-9.873433E-3
1.533000E-7	-9.832322E-3
1.533500E-7	-9.806628E-3
1.534000E-7	-9.808341E-3
1.534500E-7	-9.799776E-3
1.535000E-7	-9.767230E-3
1.535500E-7	-9.720980E-3
1.536000E-7	-9.683295E-3
1.536500E-7	-9.669592E-3
1.537000E-7	-9.690147E-3
1.537500E-7	-9.726119E-3
1.538000E-7	-9.748387E-3
1.538500E-7	-9.770656E-3
1.539000E-7	-9.801489E-3
1.539500E-7	-9.818618E-3
1.540000E-7	-9.801489E-3
1.540500E-7	-9.775795E-3
1.541000E-7	-9.758665E-3
1.541500E-7	-9.724406E-3
1.542000E-7	-9.661027E-3
1.542500E-7	-9.595935E-3
1.543000E-7	-9.542833E-3
1.543500E-7	-9.484593E-3
1.544000E-7	-9.433205E-3
1.544500E-7	-9.405797E-3
1.545000E-7	-9.398946E-3
1.545500E-7	-9.412649E-3
1.546000E-7	-9.452047E-3
1.546500E-7	-9.503436E-3
1.547000E-7	-9.551398E-3
1.547500E-7	-9.611351E-3
1.548000E-7	-9.693573E-3
1.548500E-7	-9.784359E-3
1.549000E-7	-9.856303E-3
1.549500E-7	-9.888849E-3
1.550000E-7	-9.899127E-3
1.550500E-7	-9.914544E-3
1.551000E-7	-9.923108E-3
1.551500E-7	-9.897414E-3
1.552000E-7	-9.840887E-3
1.552500E-7	-9.772369E-3
1.553000E-7	-9.685008E-3
1.553500E-7	-9.582231E-3
1.554000E-7	-9.467464E-3
1.554500E-7	-9.337279E-3
1.555000E-7	-9.217373E-3
1.555500E-7	-9.130012E-3
1.556000E-7	-9.058069E-3
1.556500E-7	-9.010106E-3
1.557000E-7	-9.027235E-3
1.557500E-7	-9.099179E-3
1.558000E-7	-9.189966E-3
1.558500E-7	-9.297882E-3
1.559000E-7	-9.421214E-3
1.559500E-7	-9.529130E-3
1.560000E-7	-9.609638E-3
1.560500E-7	-9.683295E-3
1.561000E-7	-9.751813E-3
1.561500E-7	-9.780933E-3
1.562000E-7	-9.763804E-3
1.562500E-7	-9.731258E-3
1.563000E-7	-9.708990E-3
1.563500E-7	-9.671305E-3
1.564000E-7	-9.619916E-3
1.564500E-7	-9.619916E-3
1.565000E-7	-9.688434E-3
1.565500E-7	-9.786072E-3
1.566000E-7	-9.897414E-3
1.566500E-7	-1.003788E-2
1.567000E-7	-1.018348E-2
1.567500E-7	-1.031024E-2
1.568000E-7	-1.041301E-2
1.568500E-7	-1.047810E-2
1.569000E-7	-1.048496E-2
1.569500E-7	-1.045412E-2
1.570000E-7	-1.040102E-2
1.570500E-7	-1.031537E-2
1.571000E-7	-1.020061E-2
1.571500E-7	-1.007556E-2
1.572000E-7	-9.945377E-3
1.572500E-7	-9.840887E-3
1.573000E-7	-9.798063E-3
1.573500E-7	-9.808341E-3
1.574000E-7	-9.858016E-3
1.574500E-7	-9.940238E-3
1.575000E-7	-1.003102E-2
1.575500E-7	-1.010126E-2
1.576000E-7	-1.014408E-2
1.576500E-7	-1.015778E-2
1.577000E-7	-1.014750E-2
1.577500E-7	-1.012352E-2
1.578000E-7	-1.007213E-2
1.578500E-7	-9.991626E-3
1.579000E-7	-9.902553E-3
1.579500E-7	-9.810054E-3
1.580000E-7	-9.702138E-3
1.580500E-7	-9.607926E-3
1.581000E-7	-9.559963E-3
1.581500E-7	-9.541120E-3
1.582000E-7	-9.535982E-3
1.582500E-7	-9.561676E-3
1.583000E-7	-9.609638E-3
1.583500E-7	-9.645610E-3
1.584000E-7	-9.674731E-3
1.584500E-7	-9.717554E-3
1.585000E-7	-9.767230E-3
1.585500E-7	-9.810054E-3
1.586000E-7	-9.851164E-3
1.586500E-7	-9.895701E-3
1.587000E-7	-9.940238E-3
1.587500E-7	-9.972784E-3
1.588000E-7	-9.993339E-3
1.588500E-7	-1.000533E-2
1.589000E-7	-9.995052E-3
1.589500E-7	-9.957367E-3
1.590000E-7	-9.919682E-3
1.590500E-7	-9.890562E-3
1.591000E-7	-9.852877E-3
1.591500E-7	-9.815192E-3
1.592000E-7	-9.787785E-3
1.592500E-7	-9.768943E-3
1.593000E-7	-9.767230E-3
1.593500E-7	-9.784359E-3
1.594000E-7	-9.798063E-3
1.594500E-7	-9.787785E-3
1.595000E-7	-9.763804E-3
1.595500E-7	-9.726119E-3
1.596000E-7	-9.669592E-3
1.596500E-7	-9.609638E-3
1.597000E-7	-9.563389E-3
1.597500E-7	-9.523991E-3
1.598000E-7	-9.494871E-3
1.598500E-7	-9.493158E-3
1.599000E-7	-9.513713E-3
1.599500E-7	-9.541120E-3
1.600000E-7	-9.561676E-3
1.600500E-7	-9.592509E-3
1.601000E-7	-9.659314E-3
1.601500E-7	-9.755239E-3
1.602000E-7	-9.818618E-3
1.602500E-7	-9.839174E-3
1.603000E-7	-9.842600E-3
1.603500E-7	-9.816905E-3
1.604000E-7	-9.741536E-3
1.604500E-7	-9.657601E-3
1.605000E-7	-9.595935E-3
1.605500E-7	-9.525704E-3
1.606000E-7	-9.440056E-3
1.606500E-7	-9.381816E-3
1.607000E-7	-9.356122E-3
1.607500E-7	-9.354409E-3
1.608000E-7	-9.381816E-3
1.608500E-7	-9.446908E-3
1.609000E-7	-9.546259E-3
1.609500E-7	-9.671305E-3
1.610000E-7	-9.803202E-3
1.610500E-7	-9.923108E-3
1.611000E-7	-1.001732E-2
1.611500E-7	-1.007899E-2
1.612000E-7	-1.010126E-2
1.612500E-7	-1.010126E-2
1.613000E-7	-1.009269E-2
1.613500E-7	-1.007042E-2
1.614000E-7	-1.003274E-2
1.614500E-7	-9.995052E-3
1.615000E-7	-9.977923E-3
1.615500E-7	-9.969358E-3
1.616000E-7	-9.955654E-3
1.616500E-7	-9.928247E-3
1.617000E-7	-9.888849E-3
1.617500E-7	-9.851164E-3
1.618000E-7	-9.825470E-3
1.618500E-7	-9.798063E-3
1.619000E-7	-9.762091E-3
1.619500E-7	-9.743249E-3
1.620000E-7	-9.763804E-3
1.620500E-7	-9.794637E-3
1.621000E-7	-9.816905E-3
1.621500E-7	-9.844313E-3
1.622000E-7	-9.880285E-3
1.622500E-7	-9.924821E-3
1.623000E-7	-9.983062E-3
1.623500E-7	-1.002589E-2
1.624000E-7	-1.003788E-2
1.624500E-7	-1.003788E-2
1.625000E-7	-1.003102E-2
1.625500E-7	-1.000704E-2
1.626000E-7	-9.979636E-3
1.626500E-7	-9.960793E-3
1.627000E-7	-9.916257E-3
1.627500E-7	-9.849451E-3
1.628000E-7	-9.796350E-3
1.628500E-7	-9.772369E-3
1.629000E-7	-9.777508E-3
1.629500E-7	-9.803202E-3
1.630000E-7	-9.837461E-3
1.630500E-7	-9.890562E-3
1.631000E-7	-9.979636E-3
1.631500E-7	-1.006014E-2
1.632000E-7	-1.008755E-2
1.632500E-7	-1.010126E-2
1.633000E-7	-1.012866E-2
1.633500E-7	-1.012524E-2
1.634000E-7	-1.008070E-2
1.634500E-7	-1.004644E-2
1.635000E-7	-1.002246E-2
1.635500E-7	-9.977923E-3
1.636000E-7	-9.928247E-3
1.636500E-7	-9.892275E-3
1.637000E-7	-9.861442E-3
1.637500E-7	-9.839174E-3
1.638000E-7	-9.828896E-3
1.638500E-7	-9.811767E-3
1.639000E-7	-9.779221E-3
1.639500E-7	-9.746674E-3
1.640000E-7	-9.707277E-3
1.640500E-7	-9.667879E-3
1.641000E-7	-9.635333E-3
1.641500E-7	-9.602787E-3
1.642000E-7	-9.547972E-3
1.642500E-7	-9.493158E-3
1.643000E-7	-9.474315E-3
1.643500E-7	-9.481167E-3
1.644000E-7	-9.496584E-3
1.644500E-7	-9.534269E-3
1.645000E-7	-9.590796E-3
1.645500E-7	-9.645610E-3
1.646000E-7	-9.695286E-3
1.646500E-7	-9.753526E-3
1.647000E-7	-9.816905E-3
1.647500E-7	-9.881998E-3
1.648000E-7	-9.933386E-3
1.648500E-7	-9.969358E-3
1.649000E-7	-1.000362E-2
1.649500E-7	-1.000533E-2
1.650000E-7	-9.938525E-3
1.650500E-7	-9.835748E-3
1.651000E-7	-9.755239E-3
1.651500E-7	-9.679869E-3
1.652000E-7	-9.583944E-3
1.652500E-7	-9.520565E-3
1.653000E-7	-9.522278E-3
1.653500E-7	-9.535982E-3
1.654000E-7	-9.534269E-3
1.654500E-7	-9.537695E-3
1.655000E-7	-9.535982E-3
1.655500E-7	-9.491445E-3
1.656000E-7	-9.419501E-3
1.656500E-7	-9.366400E-3
1.657000E-7	-9.330428E-3
1.657500E-7	-9.277326E-3
1.658000E-7	-9.198530E-3
1.658500E-7	-9.130012E-3
1.659000E-7	-9.087189E-3
1.659500E-7	-9.059782E-3
1.660000E-7	-9.056356E-3
1.660500E-7	-9.109457E-3
1.661000E-7	-9.212234E-3
1.661500E-7	-9.327002E-3
1.662000E-7	-9.433205E-3
1.662500E-7	-9.537695E-3
1.663000E-7	-9.633620E-3
1.663500E-7	-9.691860E-3
1.664000E-7	-9.715841E-3
1.664500E-7	-9.734684E-3
1.665000E-7	-9.741536E-3
1.665500E-7	-9.696999E-3
1.666000E-7	-9.607926E-3
1.666500E-7	-9.535982E-3
1.667000E-7	-9.481167E-3
1.667500E-7	-9.395520E-3
1.668000E-7	-9.303020E-3
1.668500E-7	-9.249919E-3
1.669000E-7	-9.234502E-3
1.669500E-7	-9.234502E-3
1.670000E-7	-9.243067E-3
1.670500E-7	-9.265336E-3
1.671000E-7	-9.311585E-3
1.671500E-7	-9.390381E-3
1.672000E-7	-9.482880E-3
1.672500E-7	-9.583944E-3
1.673000E-7	-9.702138E-3
1.673500E-7	-9.818618E-3
1.674000E-7	-9.923108E-3
1.674500E-7	-1.002417E-2
1.675000E-7	-1.011667E-2
1.675500E-7	-1.015778E-2
1.676000E-7	-1.013894E-2
1.676500E-7	-1.009440E-2
1.677000E-7	-1.003274E-2
1.677500E-7	-9.936812E-3
1.678000E-7	-9.816905E-3
1.678500E-7	-9.703851E-3
1.679000E-7	-9.599361E-3
1.679500E-7	-9.498297E-3
1.680000E-7	-9.407510E-3
1.680500E-7	-9.356122E-3
1.681000E-7	-9.356122E-3
1.681500E-7	-9.407510E-3
1.682000E-7	-9.494871E-3
1.682500E-7	-9.609638E-3
1.683000E-7	-9.736397E-3
1.683500E-7	-9.871720E-3
1.684000E-7	-9.996765E-3
1.684500E-7	-1.010126E-2
1.685000E-7	-1.016806E-2
1.685500E-7	-1.018348E-2
1.686000E-7	-1.015264E-2
1.686500E-7	-1.009954E-2
1.687000E-7	-1.003616E-2
1.687500E-7	-9.953941E-3
1.688000E-7	-9.846026E-3
1.688500E-7	-9.738110E-3
1.689000E-7	-9.649036E-3
1.689500E-7	-9.583944E-3
1.690000E-7	-9.553111E-3
1.690500E-7	-9.571954E-3
1.691000E-7	-9.625055E-3
1.691500E-7	-9.693573E-3
1.692000E-7	-9.767230E-3
1.692500E-7	-9.849451E-3
1.693000E-7	-9.940238E-3
1.693500E-7	-1.002760E-2
1.694000E-7	-1.009954E-2
1.694500E-7	-1.015607E-2
1.695000E-7	-1.020061E-2
1.695500E-7	-1.020917E-2
1.696000E-7	-1.015950E-2
1.696500E-7	-1.007899E-2
1.697000E-7	-9.988200E-3
1.697500E-7	-9.881998E-3
1.698000E-7	-9.772369E-3
1.698500E-7	-9.688434E-3
1.699000E-7	-9.621629E-3
1.699500E-7	-9.556537E-3
1.700000E-7	-9.505149E-3
1.700500E-7	-9.493158E-3
1.701000E-7	-9.493158E-3
1.701500E-7	-9.481167E-3
1.702000E-7	-9.474315E-3
1.702500E-7	-9.486306E-3
1.703000E-7	-9.512000E-3
1.703500E-7	-9.535982E-3
1.704000E-7	-9.551398E-3
1.704500E-7	-9.570241E-3
1.705000E-7	-9.607926E-3
1.705500E-7	-9.654175E-3
1.706000E-7	-9.700425E-3
1.706500E-7	-9.739823E-3
1.707000E-7	-9.765517E-3
1.707500E-7	-9.760378E-3
1.708000E-7	-9.736397E-3
1.708500E-7	-9.729545E-3
1.709000E-7	-9.744962E-3
1.709500E-7	-9.741536E-3
1.710000E-7	-9.720980E-3
1.710500E-7	-9.724406E-3
1.711000E-7	-9.756952E-3
1.711500E-7	-9.770656E-3
1.712000E-7	-9.767230E-3
1.712500E-7	-9.792924E-3
1.713000E-7	-9.868294E-3
1.713500E-7	-9.950516E-3
1.714000E-7	-1.001732E-2
1.714500E-7	-1.008241E-2
1.715000E-7	-1.014065E-2
1.715500E-7	-1.015778E-2
1.716000E-7	-1.012181E-2
1.716500E-7	-1.005158E-2
1.717000E-7	-9.976210E-3
1.717500E-7	-9.887136E-3
1.718000E-7	-9.768943E-3
1.718500E-7	-9.640472E-3
1.719000E-7	-9.527417E-3
1.719500E-7	-9.419501E-3
1.720000E-7	-9.315011E-3
1.720500E-7	-9.234502E-3
1.721000E-7	-9.205382E-3
1.721500E-7	-9.222512E-3
1.722000E-7	-9.268761E-3
1.722500E-7	-9.342418E-3
1.723000E-7	-9.419501E-3
1.723500E-7	-9.472602E-3
1.724000E-7	-9.488019E-3
1.724500E-7	-9.476028E-3
1.725000E-7	-9.446908E-3
1.725500E-7	-9.402372E-3
1.726000E-7	-9.357835E-3
1.726500E-7	-9.340705E-3
1.727000E-7	-9.349270E-3
1.727500E-7	-9.359548E-3
1.728000E-7	-9.357835E-3
1.728500E-7	-9.361261E-3
1.729000E-7	-9.366400E-3
1.729500E-7	-9.356122E-3
1.730000E-7	-9.340705E-3
1.730500E-7	-9.328715E-3
1.731000E-7	-9.323576E-3
1.731500E-7	-9.316724E-3
1.732000E-7	-9.289317E-3
1.732500E-7	-9.256771E-3
1.733000E-7	-9.260197E-3
1.733500E-7	-9.289317E-3
1.734000E-7	-9.313298E-3
1.734500E-7	-9.333854E-3
1.735000E-7	-9.368113E-3
1.735500E-7	-9.400659E-3
1.736000E-7	-9.422927E-3
1.736500E-7	-9.462325E-3
1.737000E-7	-9.518852E-3
1.737500E-7	-9.546259E-3
1.738000E-7	-9.547972E-3
1.738500E-7	-9.553111E-3
1.739000E-7	-9.558250E-3
1.739500E-7	-9.549685E-3
1.740000E-7	-9.534269E-3
1.740500E-7	-9.535982E-3
1.741000E-7	-9.546259E-3
1.741500E-7	-9.565102E-3
1.742000E-7	-9.599361E-3
1.742500E-7	-9.654175E-3
1.743000E-7	-9.717554E-3
1.743500E-7	-9.772369E-3
1.744000E-7	-9.804915E-3
1.744500E-7	-9.828896E-3
1.745000E-7	-9.856303E-3
1.745500E-7	-9.871720E-3
1.746000E-7	-9.871720E-3
1.746500E-7	-9.868294E-3
1.747000E-7	-9.868294E-3
1.747500E-7	-9.854590E-3
1.748000E-7	-9.822044E-3
1.748500E-7	-9.803202E-3
1.749000E-7	-9.808341E-3
1.749500E-7	-9.818618E-3
1.750000E-7	-9.810054E-3
1.750500E-7	-9.779221E-3
1.751000E-7	-9.731258E-3
1.751500E-7	-9.676444E-3
1.752000E-7	-9.637046E-3
1.752500E-7	-9.619916E-3
1.753000E-7	-9.623342E-3
1.753500E-7	-9.631907E-3
1.754000E-7	-9.647323E-3
1.754500E-7	-9.674731E-3
1.755000E-7	-9.715841E-3
1.755500E-7	-9.746674E-3
1.756000E-7	-9.763804E-3
1.756500E-7	-9.775795E-3
1.757000E-7	-9.780933E-3
1.757500E-7	-9.756952E-3
1.758000E-7	-9.714128E-3
1.758500E-7	-9.683295E-3
1.759000E-7	-9.667879E-3
1.759500E-7	-9.643897E-3
1.760000E-7	-9.607926E-3
1.760500E-7	-9.570241E-3
1.761000E-7	-9.547972E-3
1.761500E-7	-9.539408E-3
1.762000E-7	-9.522278E-3
1.762500E-7	-9.493158E-3
1.763000E-7	-9.477741E-3
1.763500E-7	-9.476028E-3
1.764000E-7	-9.453760E-3
1.764500E-7	-9.412649E-3
1.765000E-7	-9.380103E-3
1.765500E-7	-9.345844E-3
1.766000E-7	-9.299595E-3
1.766500E-7	-9.270474E-3
1.767000E-7	-9.289317E-3
1.767500E-7	-9.332141E-3
1.768000E-7	-9.390381E-3
1.768500E-7	-9.491445E-3
1.769000E-7	-9.611351E-3
1.769500E-7	-9.683295E-3
1.770000E-7	-9.719267E-3
1.770500E-7	-9.765517E-3
1.771000E-7	-9.791211E-3
1.771500E-7	-9.767230E-3
1.772000E-7	-9.738110E-3
1.772500E-7	-9.731258E-3
1.773000E-7	-9.715841E-3
1.773500E-7	-9.679869E-3
1.774000E-7	-9.655888E-3
1.774500E-7	-9.655888E-3
1.775000E-7	-9.664453E-3
1.775500E-7	-9.669592E-3
1.776000E-7	-9.674731E-3
1.776500E-7	-9.683295E-3
1.777000E-7	-9.702138E-3
1.777500E-7	-9.708990E-3
1.778000E-7	-9.690147E-3
1.778500E-7	-9.649036E-3
1.779000E-7	-9.599361E-3
1.779500E-7	-9.534269E-3
1.780000E-7	-9.469177E-3
1.780500E-7	-9.421214E-3
1.781000E-7	-9.392094E-3
1.781500E-7	-9.371538E-3
1.782000E-7	-9.369825E-3
1.782500E-7	-9.385242E-3
1.783000E-7	-9.410936E-3
1.783500E-7	-9.443482E-3
1.784000E-7	-9.484593E-3
1.784500E-7	-9.541120E-3
1.785000E-7	-9.623342E-3
1.785500E-7	-9.703851E-3
1.786000E-7	-9.738110E-3
1.786500E-7	-9.743249E-3
1.787000E-7	-9.756952E-3
1.787500E-7	-9.765517E-3
1.788000E-7	-9.750100E-3
1.788500E-7	-9.751813E-3
1.789000E-7	-9.784359E-3
1.789500E-7	-9.808341E-3
1.790000E-7	-9.822044E-3
1.790500E-7	-9.873433E-3
1.791000E-7	-9.947090E-3
1.791500E-7	-9.989913E-3
1.792000E-7	-1.002417E-2
1.792500E-7	-1.008755E-2
1.793000E-7	-1.014922E-2
1.793500E-7	-1.016806E-2
1.794000E-7	-1.018005E-2
1.794500E-7	-1.020403E-2
1.795000E-7	-1.022116E-2
1.795500E-7	-1.021260E-2
1.796000E-7	-1.018519E-2
1.796500E-7	-1.015436E-2
1.797000E-7	-1.012695E-2
1.797500E-7	-1.012010E-2
1.798000E-7	-1.013038E-2
1.798500E-7	-1.014750E-2
1.799000E-7	-1.016977E-2
1.799500E-7	-1.017662E-2
1.800000E-7	-1.014065E-2
1.800500E-7	-1.008755E-2
1.801000E-7	-1.005329E-2
1.801500E-7	-1.001903E-2
1.802000E-7	-9.972784E-3
1.802500E-7	-9.931673E-3
1.803000E-7	-9.895701E-3
1.803500E-7	-9.852877E-3
1.804000E-7	-9.818618E-3
1.804500E-7	-9.835748E-3
1.805000E-7	-9.897414E-3
1.805500E-7	-9.983062E-3
1.806000E-7	-1.007727E-2
1.806500E-7	-1.017834E-2
1.807000E-7	-1.026056E-2
1.807500E-7	-1.030681E-2
1.808000E-7	-1.033250E-2
1.808500E-7	-1.036162E-2
1.809000E-7	-1.038389E-2
1.809500E-7	-1.038047E-2
1.810000E-7	-1.035135E-2
1.810500E-7	-1.030852E-2
1.811000E-7	-1.024514E-2
1.811500E-7	-1.016806E-2
1.812000E-7	-1.009783E-2
1.812500E-7	-1.004987E-2
1.813000E-7	-1.001561E-2
1.813500E-7	-9.981349E-3
1.814000E-7	-9.938525E-3
1.814500E-7	-9.907692E-3
1.815000E-7	-9.911118E-3
1.815500E-7	-9.936812E-3
1.816000E-7	-9.972784E-3
1.816500E-7	-1.002760E-2
1.817000E-7	-1.010126E-2
1.817500E-7	-1.016977E-2
1.818000E-7	-1.021260E-2
1.818500E-7	-1.025199E-2
1.819000E-7	-1.029311E-2
1.819500E-7	-1.029996E-2
1.820000E-7	-1.026056E-2
1.820500E-7	-1.019204E-2
1.821000E-7	-1.010811E-2
1.821500E-7	-1.001561E-2
1.822000E-7	-9.938525E-3
1.822500E-7	-9.892275E-3
1.823000E-7	-9.859729E-3
1.823500E-7	-9.837461E-3
1.824000E-7	-9.830609E-3
1.824500E-7	-9.842600E-3
1.825000E-7	-9.873433E-3
1.825500E-7	-9.907692E-3
1.826000E-7	-9.923108E-3
1.826500E-7	-9.933386E-3
1.827000E-7	-9.957367E-3
1.827500E-7	-9.964219E-3
1.828000E-7	-9.921395E-3
1.828500E-7	-9.868294E-3
1.829000E-7	-9.830609E-3
1.829500E-7	-9.774082E-3
1.830000E-7	-9.703851E-3
1.830500E-7	-9.669592E-3
1.831000E-7	-9.666166E-3
1.831500E-7	-9.650749E-3
1.832000E-7	-9.625055E-3
1.832500E-7	-9.618203E-3
1.833000E-7	-9.613064E-3
1.833500E-7	-9.587370E-3
1.834000E-7	-9.535982E-3
1.834500E-7	-9.479454E-3
1.835000E-7	-9.434918E-3
1.835500E-7	-9.400659E-3
1.836000E-7	-9.376677E-3
1.836500E-7	-9.381816E-3
1.837000E-7	-9.419501E-3
1.837500E-7	-9.462325E-3
1.838000E-7	-9.503436E-3
1.838500E-7	-9.565102E-3
1.839000E-7	-9.630194E-3
1.839500E-7	-9.671305E-3
1.840000E-7	-9.705564E-3
1.840500E-7	-9.736397E-3
1.841000E-7	-9.726119E-3
1.841500E-7	-9.678156E-3
1.842000E-7	-9.633620E-3
1.842500E-7	-9.582231E-3
1.843000E-7	-9.498297E-3
1.843500E-7	-9.414362E-3
1.844000E-7	-9.361261E-3
1.844500E-7	-9.332141E-3
1.845000E-7	-9.311585E-3
1.845500E-7	-9.304733E-3
1.846000E-7	-9.297882E-3
1.846500E-7	-9.304733E-3
1.847000E-7	-9.344131E-3
1.847500E-7	-9.392094E-3
1.848000E-7	-9.419501E-3
1.848500E-7	-9.455473E-3
1.849000E-7	-9.532556E-3
1.849500E-7	-9.635333E-3
1.850000E-7	-9.726119E-3
1.850500E-7	-9.806628E-3
1.851000E-7	-9.883710E-3
1.851500E-7	-9.943664E-3
1.852000E-7	-9.989913E-3
1.852500E-7	-1.002075E-2
1.853000E-7	-1.002417E-2
1.853500E-7	-9.989913E-3
1.854000E-7	-9.931673E-3
1.854500E-7	-9.875146E-3
1.855000E-7	-9.825470E-3
1.855500E-7	-9.782646E-3
1.856000E-7	-9.753526E-3
1.856500E-7	-9.727832E-3
1.857000E-7	-9.707277E-3
1.857500E-7	-9.714128E-3
1.858000E-7	-9.732971E-3
1.858500E-7	-9.734684E-3
1.859000E-7	-9.732971E-3
1.859500E-7	-9.738110E-3
1.860000E-7	-9.724406E-3
1.860500E-7	-9.691860E-3
1.861000E-7	-9.664453E-3
1.861500E-7	-9.625055E-3
1.862000E-7	-9.556537E-3
1.862500E-7	-9.486306E-3
1.863000E-7	-9.440056E-3
1.863500E-7	-9.385242E-3
1.864000E-7	-9.325289E-3
1.864500E-7	-9.292743E-3
1.865000E-7	-9.284178E-3
1.865500E-7	-9.273900E-3
1.866000E-7	-9.267048E-3
1.866500E-7	-9.275613E-3
1.867000E-7	-9.301307E-3
1.867500E-7	-9.357835E-3
1.868000E-7	-9.434918E-3
1.868500E-7	-9.539408E-3
1.869000E-7	-9.654175E-3
1.869500E-7	-9.760378E-3
1.870000E-7	-9.823757E-3
1.870500E-7	-9.873433E-3
1.871000E-7	-9.941951E-3
1.871500E-7	-1.001047E-2
1.872000E-7	-1.004987E-2
1.872500E-7	-1.007727E-2
1.873000E-7	-1.009954E-2
1.873500E-7	-1.009269E-2
1.874000E-7	-1.005329E-2
1.874500E-7	-1.001218E-2
1.875000E-7	-9.972784E-3
1.875500E-7	-9.935099E-3
1.876000E-7	-9.905979E-3
1.876500E-7	-9.890562E-3
1.877000E-7	-9.888849E-3
1.877500E-7	-9.893988E-3
1.878000E-7	-9.900840E-3
1.878500E-7	-9.929960E-3
1.879000E-7	-9.988200E-3
1.879500E-7	-1.004473E-2
1.880000E-7	-1.007899E-2
1.880500E-7	-1.011325E-2
1.881000E-7	-1.015778E-2
1.881500E-7	-1.018005E-2
1.882000E-7	-1.016977E-2
1.882500E-7	-1.015436E-2
1.883000E-7	-1.012352E-2
1.883500E-7	-1.003616E-2
1.884000E-7	-9.899127E-3
1.884500E-7	-9.762091E-3
1.885000E-7	-9.655888E-3
1.885500E-7	-9.565102E-3
1.886000E-7	-9.472602E-3
1.886500E-7	-9.383529E-3
1.887000E-7	-9.330428E-3
1.887500E-7	-9.313298E-3
1.888000E-7	-9.318437E-3
1.888500E-7	-9.359548E-3
1.889000E-7	-9.436631E-3
1.889500E-7	-9.522278E-3
1.890000E-7	-9.599361E-3
1.890500E-7	-9.683295E-3
1.891000E-7	-9.765517E-3
1.891500E-7	-9.837461E-3
1.892000E-7	-9.892275E-3
1.892500E-7	-9.929960E-3
1.893000E-7	-9.947090E-3
1.893500E-7	-9.926534E-3
1.894000E-7	-9.863155E-3
1.894500E-7	-9.796350E-3
1.895000E-7	-9.758665E-3
1.895500E-7	-9.727832E-3
1.896000E-7	-9.688434E-3
1.896500E-7	-9.657601E-3
1.897000E-7	-9.642185E-3
1.897500E-7	-9.619916E-3
1.898000E-7	-9.585657E-3
1.898500E-7	-9.551398E-3
1.899000E-7	-9.539408E-3
1.899500E-7	-9.559963E-3
1.900000E-7	-9.594222E-3
1.900500E-7	-9.621629E-3
1.901000E-7	-9.647323E-3
1.901500E-7	-9.662740E-3
1.902000E-7	-9.659314E-3
1.902500E-7	-9.657601E-3
1.903000E-7	-9.674731E-3
1.903500E-7	-9.683295E-3
1.904000E-7	-9.673018E-3
1.904500E-7	-9.683295E-3
1.905000E-7	-9.700425E-3
1.905500E-7	-9.691860E-3
1.906000E-7	-9.681582E-3
1.906500E-7	-9.696999E-3
1.907000E-7	-9.710703E-3
1.907500E-7	-9.700425E-3
1.908000E-7	-9.686721E-3
1.908500E-7	-9.662740E-3
1.909000E-7	-9.621629E-3
1.909500E-7	-9.571954E-3
1.910000E-7	-9.527417E-3
1.910500E-7	-9.500010E-3
1.911000E-7	-9.500010E-3
1.911500E-7	-9.513713E-3
1.912000E-7	-9.508574E-3
1.912500E-7	-9.503436E-3
1.913000E-7	-9.530843E-3
1.913500E-7	-9.566815E-3
1.914000E-7	-9.580518E-3
1.914500E-7	-9.614777E-3
1.915000E-7	-9.690147E-3
1.915500E-7	-9.753526E-3
1.916000E-7	-9.777508E-3
1.916500E-7	-9.804915E-3
1.917000E-7	-9.827183E-3
1.917500E-7	-9.815192E-3
1.918000E-7	-9.806628E-3
1.918500E-7	-9.823757E-3
1.919000E-7	-9.827183E-3
1.919500E-7	-9.804915E-3
1.920000E-7	-9.796350E-3
1.920500E-7	-9.803202E-3
1.921000E-7	-9.815192E-3
1.921500E-7	-9.825470E-3
1.922000E-7	-9.822044E-3
1.922500E-7	-9.799776E-3
1.923000E-7	-9.791211E-3
1.923500E-7	-9.782646E-3
1.924000E-7	-9.763804E-3
1.924500E-7	-9.765517E-3
1.925000E-7	-9.786072E-3
1.925500E-7	-9.777508E-3
1.926000E-7	-9.743249E-3
1.926500E-7	-9.724406E-3
1.927000E-7	-9.714128E-3
1.927500E-7	-9.702138E-3
1.928000E-7	-9.708990E-3
1.928500E-7	-9.719267E-3
1.929000E-7	-9.724406E-3
1.929500E-7	-9.744962E-3
1.930000E-7	-9.779221E-3
1.930500E-7	-9.804915E-3
1.931000E-7	-9.842600E-3
1.931500E-7	-9.905979E-3
1.932000E-7	-9.972784E-3
1.932500E-7	-1.003788E-2
1.933000E-7	-1.010468E-2
1.933500E-7	-1.014065E-2
1.934000E-7	-1.012866E-2
1.934500E-7	-1.008926E-2
1.935000E-7	-1.002417E-2
1.935500E-7	-9.914544E-3
1.936000E-7	-9.755239E-3
1.936500E-7	-9.592509E-3
1.937000E-7	-9.448621E-3
1.937500E-7	-9.311585E-3
1.938000E-7	-9.183114E-3
1.938500E-7	-9.109457E-3
1.939000E-7	-9.116309E-3
1.939500E-7	-9.177975E-3
1.940000E-7	-9.273900E-3
1.940500E-7	-9.398946E-3
1.941000E-7	-9.515426E-3
1.941500E-7	-9.601074E-3
1.942000E-7	-9.685008E-3
1.942500E-7	-9.782646E-3
1.943000E-7	-9.852877E-3
1.943500E-7	-9.864868E-3
1.944000E-7	-9.837461E-3
1.944500E-7	-9.792924E-3
1.945000E-7	-9.731258E-3
1.945500E-7	-9.643897E-3
1.946000E-7	-9.546259E-3
1.946500E-7	-9.464038E-3
1.947000E-7	-9.417788E-3
1.947500E-7	-9.400659E-3
1.948000E-7	-9.416075E-3
1.948500E-7	-9.486306E-3
1.949000E-7	-9.585657E-3
1.949500E-7	-9.673018E-3
1.950000E-7	-9.746674E-3
1.950500E-7	-9.820331E-3
1.951000E-7	-9.881998E-3
1.951500E-7	-9.914544E-3
1.952000E-7	-9.902553E-3
1.952500E-7	-9.842600E-3
1.953000E-7	-9.739823E-3
1.953500E-7	-9.601074E-3
1.954000E-7	-9.455473E-3
1.954500E-7	-9.330428E-3
1.955000E-7	-9.232789E-3
1.955500E-7	-9.143716E-3
1.956000E-7	-9.071772E-3
1.956500E-7	-9.039226E-3
1.957000E-7	-9.054643E-3
1.957500E-7	-9.114596E-3
1.958000E-7	-9.219086E-3
1.958500E-7	-9.359548E-3
1.959000E-7	-9.517139E-3
1.959500E-7	-9.667879E-3
1.960000E-7	-9.792924E-3
1.960500E-7	-9.883710E-3
1.961000E-7	-9.940238E-3
1.961500E-7	-9.952228E-3
1.962000E-7	-9.926534E-3
1.962500E-7	-9.875146E-3
1.963000E-7	-9.792924E-3
1.963500E-7	-9.683295E-3
1.964000E-7	-9.563389E-3
1.964500E-7	-9.458899E-3
1.965000E-7	-9.386955E-3
1.965500E-7	-9.356122E-3
1.966000E-7	-9.361261E-3
1.966500E-7	-9.385242E-3
1.967000E-7	-9.436631E-3
1.967500E-7	-9.512000E-3
1.968000E-7	-9.582231E-3
1.968500E-7	-9.649036E-3
1.969000E-7	-9.719267E-3
1.969500E-7	-9.780933E-3
1.970000E-7	-9.808341E-3
1.970500E-7	-9.796350E-3
1.971000E-7	-9.746674E-3
1.971500E-7	-9.666166E-3
1.972000E-7	-9.580518E-3
1.972500E-7	-9.489732E-3
1.973000E-7	-9.397233E-3
1.973500E-7	-9.316724E-3
1.974000E-7	-9.253345E-3
1.974500E-7	-9.203669E-3
1.975000E-7	-9.179688E-3
1.975500E-7	-9.188253E-3
1.976000E-7	-9.222512E-3
1.976500E-7	-9.279039E-3
1.977000E-7	-9.344131E-3
1.977500E-7	-9.397233E-3
1.978000E-7	-9.438343E-3
1.978500E-7	-9.496584E-3
1.979000E-7	-9.565102E-3
1.979500E-7	-9.601074E-3
1.980000E-7	-9.607926E-3
1.980500E-7	-9.626768E-3
1.981000E-7	-9.654175E-3
1.981500E-7	-9.671305E-3
1.982000E-7	-9.695286E-3
1.982500E-7	-9.748387E-3
1.983000E-7	-9.815192E-3
1.983500E-7	-9.873433E-3
1.984000E-7	-9.929960E-3
1.984500E-7	-9.988200E-3
1.985000E-7	-1.002760E-2
1.985500E-7	-1.004815E-2
1.986000E-7	-1.006528E-2
1.986500E-7	-1.008926E-2
1.987000E-7	-1.009098E-2
1.987500E-7	-1.004815E-2
1.988000E-7	-9.983062E-3
1.988500E-7	-9.928247E-3
1.989000E-7	-9.871720E-3
1.989500E-7	-9.786072E-3
1.990000E-7	-9.686721E-3
1.990500E-7	-9.601074E-3
1.991000E-7	-9.532556E-3
1.991500E-7	-9.484593E-3
1.992000E-7	-9.469177E-3
1.992500E-7	-9.474315E-3
1.993000E-7	-9.486306E-3
1.993500E-7	-9.508574E-3
1.994000E-7	-9.556537E-3
1.994500E-7	-9.638759E-3
1.995000E-7	-9.736397E-3
1.995500E-7	-9.827183E-3
1.996000E-7	-9.909405E-3
1.996500E-7	-9.993339E-3
1.997000E-7	-1.006871E-2
1.997500E-7	-1.011153E-2
1.998000E-7	-1.012181E-2
1.998500E-7	-1.011667E-2
1.999000E-7	-1.009783E-2
1.999500E-7	-1.004987E-2
2.000000E-7	-9.981349E-3
2.000500E-7	-9.926534E-3
