Study Name	Tungsten_Kyocera
Sample Name	2024-02-05
Run Name	spot00
Operator	Angus+Samantha
Date	2/5/2024
Time	15:26
Sign	FIX
Grating Spacing	03.40um
Channel	3
Number Traces	10000
Files in Batch	1
Batch Number	37
dt	50.000001E-12
time stamp (ms)	4:04:58 PM
	
Time	Amplitude
0.000000E+0	6.658230E-3
5.000000E-11	6.637675E-3
1.000000E-10	6.671934E-3
1.500000E-10	6.689064E-3
2.000000E-10	6.718184E-3
2.500000E-10	6.788415E-3
3.000000E-10	6.868924E-3
3.500000E-10	6.920312E-3
4.000000E-10	6.964849E-3
4.500000E-10	6.997395E-3
5.000000E-10	6.992256E-3
5.500000E-10	6.952858E-3
6.000000E-10	6.916886E-3
6.500000E-10	6.877488E-3
7.000000E-10	6.815822E-3
7.500000E-10	6.733601E-3
8.000000E-10	6.649667E-3
8.500000E-10	6.579436E-3
9.000000E-10	6.519483E-3
9.500000E-10	6.456104E-3
1.000000E-9	6.401290E-3
1.050000E-9	6.382448E-3
1.100000E-9	6.408142E-3
1.150000E-9	6.440688E-3
1.200000E-9	6.444114E-3
1.250000E-9	6.445826E-3
1.300000E-9	6.490363E-3
1.350000E-9	6.557168E-3
1.400000E-9	6.606843E-3
1.450000E-9	6.656518E-3
1.500000E-9	6.731888E-3
1.550000E-9	6.793554E-3
1.600000E-9	6.832952E-3
1.650000E-9	6.877488E-3
1.700000E-9	6.903183E-3
1.750000E-9	6.870636E-3
1.800000E-9	6.839803E-3
1.850000E-9	6.836377E-3
1.900000E-9	6.853507E-3
1.950000E-9	6.884340E-3
2.000000E-9	6.946006E-3
2.050000E-9	7.002533E-3
2.100000E-9	7.050495E-3
2.150000E-9	7.115587E-3
2.200000E-9	7.170401E-3
2.250000E-9	7.197808E-3
2.300000E-9	7.240632E-3
2.350000E-9	7.314289E-3
2.400000E-9	7.341696E-3
2.450000E-9	7.324567E-3
2.500000E-9	7.314289E-3
2.550000E-9	7.288595E-3
2.600000E-9	7.233781E-3
2.650000E-9	7.192670E-3
2.700000E-9	7.175541E-3
2.750000E-9	7.170402E-3
2.800000E-9	7.172115E-3
2.850000E-9	7.180680E-3
2.900000E-9	7.175541E-3
2.950000E-9	7.156699E-3
3.000000E-9	7.139569E-3
3.050000E-9	7.096746E-3
3.100000E-9	7.000821E-3
3.150000E-9	6.868924E-3
3.200000E-9	6.721610E-3
3.250000E-9	6.569158E-3
3.300000E-9	6.432122E-3
3.350000E-9	6.327632E-3
3.400000E-9	6.250550E-3
3.450000E-9	6.200874E-3
3.500000E-9	6.195735E-3
3.550000E-9	6.236846E-3
3.600000E-9	6.315642E-3
3.650000E-9	6.414993E-3
3.700000E-9	6.514344E-3
3.750000E-9	6.598278E-3
3.800000E-9	6.663370E-3
3.850000E-9	6.707907E-3
3.900000E-9	6.752443E-3
3.950000E-9	6.795267E-3
4.000000E-9	6.819248E-3
4.050000E-9	6.827813E-3
4.100000E-9	6.822675E-3
4.150000E-9	6.832952E-3
4.200000E-9	6.872350E-3
4.250000E-9	6.910035E-3
4.300000E-9	6.916887E-3
4.350000E-9	6.899757E-3
4.400000E-9	6.868924E-3
4.450000E-9	6.839804E-3
4.500000E-9	6.844943E-3
4.550000E-9	6.858647E-3
4.600000E-9	6.856934E-3
4.650000E-9	6.867211E-3
4.700000E-9	6.904896E-3
4.750000E-9	6.934016E-3
4.800000E-9	6.973414E-3
4.850000E-9	7.072765E-3
4.900000E-9	7.178967E-3
4.950000E-9	7.230356E-3
5.000000E-9	7.245772E-3
5.050000E-9	7.240633E-3
5.100000E-9	7.185819E-3
5.150000E-9	7.093320E-3
5.200000E-9	6.987117E-3
5.250000E-9	6.855220E-3
5.300000E-9	6.719897E-3
5.350000E-9	6.601704E-3
5.400000E-9	6.493788E-3
5.450000E-9	6.399576E-3
5.500000E-9	6.355039E-3
5.550000E-9	6.360178E-3
5.600000E-9	6.391011E-3
5.650000E-9	6.468094E-3
5.700000E-9	6.565732E-3
5.750000E-9	6.656518E-3
5.800000E-9	6.766146E-3
5.850000E-9	6.903182E-3
5.900000E-9	7.016237E-3
5.950000E-9	7.083042E-3
6.000000E-9	7.141282E-3
6.050000E-9	7.185819E-3
6.100000E-9	7.190958E-3
6.150000E-9	7.156699E-3
6.200000E-9	7.122441E-3
6.250000E-9	7.100172E-3
6.300000E-9	7.077904E-3
6.350000E-9	7.043645E-3
6.400000E-9	7.014525E-3
6.450000E-9	7.024803E-3
6.500000E-9	7.083043E-3
6.550000E-9	7.158412E-3
6.600000E-9	7.223504E-3
6.650000E-9	7.280031E-3
6.700000E-9	7.353688E-3
6.750000E-9	7.439335E-3
6.800000E-9	7.516418E-3
6.850000E-9	7.566093E-3
6.900000E-9	7.574658E-3
6.950000E-9	7.548963E-3
7.000000E-9	7.516417E-3
7.050000E-9	7.466742E-3
7.100000E-9	7.399937E-3
7.150000E-9	7.351974E-3
7.200000E-9	7.326280E-3
7.250000E-9	7.288596E-3
7.300000E-9	7.235494E-3
7.350000E-9	7.172116E-3
7.400000E-9	7.105311E-3
7.450000E-9	7.050497E-3
7.500000E-9	7.033367E-3
7.550000E-9	7.036793E-3
7.600000E-9	7.059061E-3
7.650000E-9	7.091607E-3
7.700000E-9	7.113876E-3
7.750000E-9	7.112163E-3
7.800000E-9	7.113876E-3
7.850000E-9	7.098459E-3
7.900000E-9	7.040219E-3
7.950000E-9	6.961423E-3
8.000000E-9	6.879202E-3
8.050000E-9	6.778138E-3
8.100000E-9	6.683925E-3
8.150000E-9	6.625685E-3
8.200000E-9	6.601704E-3
8.250000E-9	6.606843E-3
8.300000E-9	6.649666E-3
8.350000E-9	6.690777E-3
8.400000E-9	6.704480E-3
8.450000E-9	6.719897E-3
8.500000E-9	6.754156E-3
8.550000E-9	6.776424E-3
8.600000E-9	6.781563E-3
8.650000E-9	6.772999E-3
8.700000E-9	6.761008E-3
8.750000E-9	6.740453E-3
8.800000E-9	6.694204E-3
8.850000E-9	6.653093E-3
8.900000E-9	6.682213E-3
8.950000E-9	6.774712E-3
9.000000E-9	6.875776E-3
9.050000E-9	6.995682E-3
9.100000E-9	7.129292E-3
9.150000E-9	7.238920E-3
9.200000E-9	7.322854E-3
9.250000E-9	7.418779E-3
9.300000E-9	7.495862E-3
9.350000E-9	7.511278E-3
9.400000E-9	7.502714E-3
9.450000E-9	7.492436E-3
9.500000E-9	7.468455E-3
9.550000E-9	7.437622E-3
9.600000E-9	7.422205E-3
9.650000E-9	7.432483E-3
9.700000E-9	7.461604E-3
9.750000E-9	7.519844E-3
9.800000E-9	7.595214E-3
9.850000E-9	7.667157E-3
9.900000E-9	7.742527E-3
9.950000E-9	7.807619E-3
1.000000E-8	7.841878E-3
1.005000E-8	7.855581E-3
1.010000E-8	7.845304E-3
1.015000E-8	7.781925E-3
1.020000E-8	7.665444E-3
1.025000E-8	7.530121E-3
1.030000E-8	7.386234E-3
1.035000E-8	7.235494E-3
1.040000E-8	7.101884E-3
1.045000E-8	6.987117E-3
1.050000E-8	6.904895E-3
1.055000E-8	6.884340E-3
1.060000E-8	6.901469E-3
1.065000E-8	6.934015E-3
1.070000E-8	7.005959E-3
1.075000E-8	7.091607E-3
1.080000E-8	7.144708E-3
1.085000E-8	7.199523E-3
1.090000E-8	7.286883E-3
1.095000E-8	7.331420E-3
1.100000E-8	7.305726E-3
1.105000E-8	7.256051E-3
1.110000E-8	7.175542E-3
1.115000E-8	7.057349E-3
1.120000E-8	6.946007E-3
1.125000E-8	6.872350E-3
1.130000E-8	6.783277E-3
1.135000E-8	6.707907E-3
1.140000E-8	6.695916E-3
1.145000E-8	6.701055E-3
1.150000E-8	6.692490E-3
1.155000E-8	6.713045E-3
1.160000E-8	6.776424E-3
1.165000E-8	6.846655E-3
1.170000E-8	6.964849E-3
1.175000E-8	7.158412E-3
1.180000E-8	7.425632E-3
1.185000E-8	7.797341E-3
1.190000E-8	8.352336E-3
1.195000E-8	9.106033E-3
1.200000E-8	1.009269E-2
1.205000E-8	1.139453E-2
1.210000E-8	1.308350E-2
1.215000E-8	1.515959E-2
1.220000E-8	1.762623E-2
1.225000E-8	2.044231E-2
1.230000E-8	2.353932E-2
1.235000E-8	2.683331E-2
1.240000E-8	3.021296E-2
1.245000E-8	3.351380E-2
1.250000E-8	3.658683E-2
1.255000E-8	3.932583E-2
1.260000E-8	4.158520E-2
1.265000E-8	4.323991E-2
1.270000E-8	4.429337E-2
1.275000E-8	4.478841E-2
1.280000E-8	4.468564E-2
1.285000E-8	4.400217E-2
1.290000E-8	4.287676E-2
1.295000E-8	4.145673E-2
1.300000E-8	3.982772E-2
1.305000E-8	3.806338E-2
1.310000E-8	3.627678E-2
1.315000E-8	3.454328E-2
1.320000E-8	3.290741E-2
1.325000E-8	3.142229E-2
1.330000E-8	3.009818E-2
1.335000E-8	2.889912E-2
1.340000E-8	2.782853E-2
1.345000E-8	2.692067E-2
1.350000E-8	2.617554E-2
1.355000E-8	2.559999E-2
1.360000E-8	2.523342E-2
1.365000E-8	2.512208E-2
1.370000E-8	2.525912E-2
1.375000E-8	2.559485E-2
1.380000E-8	2.608133E-2
1.385000E-8	2.669628E-2
1.390000E-8	2.742086E-2
1.395000E-8	2.817969E-2
1.400000E-8	2.887515E-2
1.405000E-8	2.945584E-2
1.410000E-8	2.990634E-2
1.415000E-8	3.017527E-2
1.420000E-8	3.021638E-2
1.425000E-8	3.005023E-2
1.430000E-8	2.968366E-2
1.435000E-8	2.910468E-2
1.440000E-8	2.833385E-2
1.445000E-8	2.743627E-2
1.450000E-8	2.644105E-2
1.455000E-8	2.537045E-2
1.460000E-8	2.425875E-2
1.465000E-8	2.317103E-2
1.470000E-8	2.218095E-2
1.475000E-8	2.130563E-2
1.480000E-8	2.056221E-2
1.485000E-8	1.999865E-2
1.490000E-8	1.965949E-2
1.495000E-8	1.953959E-2
1.500000E-8	1.961496E-2
1.505000E-8	1.990444E-2
1.510000E-8	2.038750E-2
1.515000E-8	2.100073E-2
1.520000E-8	2.171674E-2
1.525000E-8	2.249614E-2
1.530000E-8	2.328238E-2
1.535000E-8	2.399668E-2
1.540000E-8	2.459621E-2
1.545000E-8	2.507412E-2
1.550000E-8	2.541157E-2
1.555000E-8	2.558286E-2
1.560000E-8	2.556231E-2
1.565000E-8	2.534476E-2
1.570000E-8	2.493537E-2
1.575000E-8	2.434954E-2
1.580000E-8	2.361126E-2
1.585000E-8	2.278048E-2
1.590000E-8	2.188290E-2
1.595000E-8	2.093906E-2
1.600000E-8	1.997639E-2
1.605000E-8	1.904797E-2
1.610000E-8	1.819150E-2
1.615000E-8	1.745150E-2
1.620000E-8	1.688281E-2
1.625000E-8	1.651795E-2
1.630000E-8	1.633980E-2
1.635000E-8	1.635008E-2
1.640000E-8	1.656420E-2
1.645000E-8	1.694447E-2
1.650000E-8	1.744637E-2
1.655000E-8	1.807845E-2
1.660000E-8	1.882529E-2
1.665000E-8	1.957214E-2
1.670000E-8	2.022819E-2
1.675000E-8	2.079689E-2
1.680000E-8	2.127480E-2
1.685000E-8	2.158313E-2
1.690000E-8	2.168762E-2
1.695000E-8	2.162596E-2
1.700000E-8	2.141184E-2
1.705000E-8	2.104527E-2
1.710000E-8	2.051596E-2
1.715000E-8	1.986333E-2
1.720000E-8	1.910792E-2
1.725000E-8	1.827372E-2
1.730000E-8	1.740354E-2
1.735000E-8	1.655734E-2
1.740000E-8	1.578652E-2
1.745000E-8	1.510134E-2
1.750000E-8	1.454121E-2
1.755000E-8	1.415922E-2
1.760000E-8	1.394853E-2
1.765000E-8	1.388858E-2
1.770000E-8	1.402732E-2
1.775000E-8	1.437848E-2
1.780000E-8	1.486838E-2
1.785000E-8	1.545421E-2
1.790000E-8	1.616166E-2
1.795000E-8	1.693420E-2
1.800000E-8	1.769817E-2
1.805000E-8	1.841418E-2
1.810000E-8	1.905996E-2
1.815000E-8	1.958413E-2
1.820000E-8	1.993870E-2
1.825000E-8	2.010657E-2
1.830000E-8	2.010828E-2
1.835000E-8	1.995069E-2
1.840000E-8	1.960296E-2
1.845000E-8	1.903940E-2
1.850000E-8	1.833196E-2
1.855000E-8	1.756284E-2
1.860000E-8	1.673035E-2
1.865000E-8	1.583962E-2
1.870000E-8	1.497115E-2
1.875000E-8	1.417806E-2
1.880000E-8	1.347747E-2
1.885000E-8	1.288136E-2
1.890000E-8	1.243600E-2
1.895000E-8	1.220475E-2
1.900000E-8	1.218248E-2
1.905000E-8	1.234007E-2
1.910000E-8	1.266553E-2
1.915000E-8	1.317428E-2
1.920000E-8	1.383548E-2
1.925000E-8	1.460802E-2
1.930000E-8	1.544736E-2
1.935000E-8	1.631411E-2
1.940000E-8	1.713119E-2
1.945000E-8	1.784377E-2
1.950000E-8	1.842446E-2
1.955000E-8	1.881844E-2
1.960000E-8	1.900686E-2
1.965000E-8	1.900001E-2
1.970000E-8	1.879959E-2
1.975000E-8	1.840219E-2
1.980000E-8	1.783863E-2
1.985000E-8	1.712604E-2
1.990000E-8	1.627471E-2
1.995000E-8	1.533772E-2
2.000000E-8	1.439903E-2
2.005000E-8	1.351344E-2
2.010000E-8	1.271520E-2
2.015000E-8	1.205401E-2
2.020000E-8	1.156239E-2
2.025000E-8	1.124550E-2
2.030000E-8	1.111703E-2
2.035000E-8	1.119068E-2
2.040000E-8	1.146133E-2
2.045000E-8	1.190327E-2
2.050000E-8	1.249595E-2
2.055000E-8	1.320683E-2
2.060000E-8	1.398793E-2
2.065000E-8	1.479815E-2
2.070000E-8	1.560153E-2
2.075000E-8	1.633467E-2
2.080000E-8	1.695304E-2
2.085000E-8	1.743095E-2
2.090000E-8	1.772900E-2
2.095000E-8	1.783349E-2
2.100000E-8	1.777011E-2
2.105000E-8	1.752687E-2
2.110000E-8	1.708665E-2
2.115000E-8	1.649739E-2
2.120000E-8	1.579851E-2
2.125000E-8	1.498486E-2
2.130000E-8	1.412839E-2
2.135000E-8	1.330617E-2
2.140000E-8	1.248396E-2
2.145000E-8	1.168401E-2
2.150000E-8	1.102624E-2
2.155000E-8	1.055347E-2
2.160000E-8	1.022629E-2
2.165000E-8	1.008241E-2
2.170000E-8	1.016292E-2
2.175000E-8	1.043870E-2
2.180000E-8	1.088064E-2
2.185000E-8	1.148703E-2
2.190000E-8	1.218248E-2
2.195000E-8	1.290192E-2
2.200000E-8	1.367789E-2
2.205000E-8	1.447269E-2
2.210000E-8	1.515102E-2
2.215000E-8	1.565291E-2
2.220000E-8	1.598351E-2
2.225000E-8	1.611712E-2
2.230000E-8	1.602976E-2
2.235000E-8	1.576254E-2
2.240000E-8	1.533601E-2
2.245000E-8	1.474505E-2
2.250000E-8	1.404959E-2
2.255000E-8	1.329247E-2
2.260000E-8	1.247025E-2
2.265000E-8	1.162577E-2
2.270000E-8	1.087379E-2
2.275000E-8	1.024342E-2
2.280000E-8	9.729537E-3
2.285000E-8	9.364680E-3
2.290000E-8	9.169405E-3
2.295000E-8	9.121443E-3
2.300000E-8	9.195101E-3
2.305000E-8	9.392091E-3
2.310000E-8	9.707274E-3
2.315000E-8	1.013380E-2
2.320000E-8	1.066310E-2
2.325000E-8	1.125921E-2
2.330000E-8	1.191526E-2
2.335000E-8	1.261415E-2
2.340000E-8	1.328048E-2
2.345000E-8	1.385775E-2
2.350000E-8	1.434251E-2
2.355000E-8	1.470223E-2
2.360000E-8	1.490949E-2
2.365000E-8	1.496773E-2
2.370000E-8	1.487866E-2
2.375000E-8	1.460973E-2
2.380000E-8	1.416436E-2
2.385000E-8	1.359223E-2
2.390000E-8	1.291219E-2
2.395000E-8	1.214308E-2
2.400000E-8	1.137397E-2
2.405000E-8	1.065110E-2
2.410000E-8	9.995046E-3
2.415000E-8	9.436626E-3
2.420000E-8	9.013529E-3
2.425000E-8	8.715476E-3
2.430000E-8	8.530479E-3
2.435000E-8	8.516776E-3
2.440000E-8	8.679506E-3
2.445000E-8	8.963856E-3
2.450000E-8	9.352695E-3
2.455000E-8	9.876857E-3
2.460000E-8	1.051407E-2
2.465000E-8	1.120439E-2
2.470000E-8	1.190499E-2
2.475000E-8	1.261415E-2
2.480000E-8	1.330960E-2
2.485000E-8	1.392626E-2
2.490000E-8	1.442987E-2
2.495000E-8	1.482898E-2
2.500000E-8	1.505167E-2
2.505000E-8	1.500542E-2
2.510000E-8	1.472278E-2
2.515000E-8	1.427227E-2
2.520000E-8	1.364191E-2
2.525000E-8	1.281113E-2
2.530000E-8	1.187929E-2
2.535000E-8	1.094230E-2
2.540000E-8	1.003787E-2
2.545000E-8	9.231069E-3
2.550000E-8	8.592140E-3
2.555000E-8	8.153626E-3
2.560000E-8	7.929231E-3
2.565000E-8	7.941222E-3
2.570000E-8	8.169045E-3
2.575000E-8	8.578440E-3
2.580000E-8	9.116307E-3
2.585000E-8	9.729542E-3
2.590000E-8	1.035991E-2
2.595000E-8	1.094060E-2
2.600000E-8	1.145962E-2
2.605000E-8	1.190670E-2
2.610000E-8	1.227156E-2
2.615000E-8	1.254905E-2
2.620000E-8	1.273405E-2
2.625000E-8	1.283511E-2
2.630000E-8	1.284539E-2
2.635000E-8	1.278030E-2
2.640000E-8	1.263470E-2
2.645000E-8	1.241887E-2
2.650000E-8	1.215507E-2
2.655000E-8	1.182961E-2
2.660000E-8	1.142878E-2
2.665000E-8	1.096800E-2
2.670000E-8	1.045583E-2
2.675000E-8	9.907684E-3
2.680000E-8	9.380097E-3
2.685000E-8	8.893620E-3
2.690000E-8	8.463671E-3
2.695000E-8	8.150203E-3
2.700000E-8	7.992612E-3
2.705000E-8	7.956641E-3
2.710000E-8	8.045715E-3
2.715000E-8	8.321500E-3
2.720000E-8	8.763440E-3
2.725000E-8	9.306445E-3
2.730000E-8	9.940235E-3
2.735000E-8	1.063569E-2
2.740000E-8	1.131231E-2
2.745000E-8	1.192211E-2
2.750000E-8	1.247197E-2
2.755000E-8	1.289849E-2
2.760000E-8	1.315030E-2
2.765000E-8	1.324451E-2
2.770000E-8	1.319655E-2
2.775000E-8	1.299442E-2
2.780000E-8	1.263127E-2
2.785000E-8	1.213452E-2
2.790000E-8	1.156410E-2
2.795000E-8	1.093717E-2
2.800000E-8	1.023828E-2
2.805000E-8	9.517133E-3
2.810000E-8	8.871352E-3
2.815000E-8	8.324922E-3
2.820000E-8	7.852149E-3
2.825000E-8	7.499282E-3
2.830000E-8	7.315997E-3
2.835000E-8	7.261183E-3
2.840000E-8	7.334841E-3
2.845000E-8	7.583218E-3
2.850000E-8	7.987474E-3
2.855000E-8	8.479091E-3
2.860000E-8	9.059780E-3
2.865000E-8	9.719265E-3
2.870000E-8	1.038046E-2
2.875000E-8	1.097486E-2
2.880000E-8	1.150073E-2
2.885000E-8	1.194952E-2
2.890000E-8	1.226984E-2
2.895000E-8	1.243771E-2
2.900000E-8	1.247882E-2
2.905000E-8	1.238803E-2
2.910000E-8	1.212081E-2
2.915000E-8	1.167887E-2
2.920000E-8	1.114272E-2
2.925000E-8	1.058259E-2
2.930000E-8	9.991619E-3
2.935000E-8	9.374958E-3
2.940000E-8	8.785705E-3
2.945000E-8	8.280386E-3
2.950000E-8	7.869279E-3
2.955000E-8	7.560949E-3
2.960000E-8	7.393081E-3
2.965000E-8	7.377665E-3
2.970000E-8	7.477016E-3
2.975000E-8	7.643173E-3
2.980000E-8	7.872708E-3
2.985000E-8	8.174187E-3
2.990000E-8	8.556174E-3
2.995000E-8	9.008392E-3
3.000000E-8	9.493156E-3
3.005000E-8	9.993337E-3
3.010000E-8	1.050893E-2
3.015000E-8	1.099027E-2
3.020000E-8	1.137740E-2
3.025000E-8	1.167716E-2
3.030000E-8	1.189299E-2
3.035000E-8	1.197693E-2
3.040000E-8	1.188957E-2
3.045000E-8	1.166860E-2
3.050000E-8	1.131573E-2
3.055000E-8	1.082240E-2
3.060000E-8	1.022458E-2
3.065000E-8	9.582225E-3
3.070000E-8	8.943295E-3
3.075000E-8	8.360893E-3
3.080000E-8	7.882981E-3
3.085000E-8	7.538679E-3
3.090000E-8	7.365672E-3
3.095000E-8	7.399931E-3
3.100000E-8	7.569513E-3
3.105000E-8	7.824743E-3
3.110000E-8	8.198165E-3
3.115000E-8	8.696634E-3
3.120000E-8	9.243064E-3
3.125000E-8	9.796346E-3
3.130000E-8	1.036505E-2
3.135000E-8	1.090976E-2
3.140000E-8	1.136712E-2
3.145000E-8	1.169943E-2
3.150000E-8	1.192554E-2
3.155000E-8	1.205915E-2
3.160000E-8	1.210197E-2
3.165000E-8	1.206943E-2
3.170000E-8	1.197179E-2
3.175000E-8	1.178336E-2
3.180000E-8	1.149730E-2
3.185000E-8	1.115642E-2
3.190000E-8	1.077786E-2
3.195000E-8	1.032051E-2
3.200000E-8	9.799770E-3
3.205000E-8	9.308154E-3
3.210000E-8	8.850797E-3
3.215000E-8	8.402005E-3
3.220000E-8	8.001175E-3
3.225000E-8	7.713401E-3
3.230000E-8	7.531828E-3
3.235000E-8	7.439330E-3
3.240000E-8	7.473589E-3
3.245000E-8	7.646597E-3
3.250000E-8	7.925808E-3
3.255000E-8	8.282102E-3
3.260000E-8	8.718904E-3
3.265000E-8	9.208807E-3
3.270000E-8	9.691858E-3
3.275000E-8	1.012009E-2
3.280000E-8	1.049694E-2
3.285000E-8	1.081213E-2
3.290000E-8	1.102282E-2
3.295000E-8	1.112217E-2
3.300000E-8	1.112902E-2
3.305000E-8	1.104508E-2
3.310000E-8	1.086522E-2
3.315000E-8	1.060143E-2
3.320000E-8	1.025713E-2
3.325000E-8	9.834028E-3
3.330000E-8	9.393800E-3
3.335000E-8	8.955286E-3
3.340000E-8	8.496216E-3
3.345000E-8	8.050850E-3
3.350000E-8	7.682567E-3
3.355000E-8	7.374237E-3
3.360000E-8	7.105305E-3
3.365000E-8	6.930585E-3
3.370000E-8	6.903179E-3
3.375000E-8	6.988827E-3
3.380000E-8	7.175538E-3
3.385000E-8	7.483869E-3
3.390000E-8	7.910393E-3
3.395000E-8	8.410574E-3
3.400000E-8	8.934735E-3
3.405000E-8	9.470887E-3
3.410000E-8	1.000019E-2
3.415000E-8	1.048495E-2
3.420000E-8	1.086523E-2
3.425000E-8	1.112559E-2
3.430000E-8	1.128832E-2
3.435000E-8	1.133628E-2
3.440000E-8	1.123179E-2
3.445000E-8	1.101768E-2
3.450000E-8	1.074189E-2
3.455000E-8	1.038731E-2
3.460000E-8	9.950509E-3
3.465000E-8	9.518846E-3
3.470000E-8	9.121442E-3
3.475000E-8	8.698345E-3
3.480000E-8	8.254692E-3
3.485000E-8	7.881269E-3
3.490000E-8	7.574652E-3
3.495000E-8	7.321136E-3
3.500000E-8	7.180675E-3
3.505000E-8	7.172111E-3
3.510000E-8	7.242342E-3
3.515000E-8	7.415350E-3
3.520000E-8	7.704838E-3
3.525000E-8	8.069696E-3
3.530000E-8	8.470526E-3
3.535000E-8	8.898763E-3
3.540000E-8	9.311583E-3
3.545000E-8	9.666163E-3
3.550000E-8	9.976206E-3
3.555000E-8	1.021602E-2
3.560000E-8	1.033593E-2
3.565000E-8	1.034106E-2
3.570000E-8	1.024685E-2
3.575000E-8	1.004301E-2
3.580000E-8	9.731254E-3
3.585000E-8	9.335562E-3
3.590000E-8	8.888483E-3
3.595000E-8	8.396867E-3
3.600000E-8	7.877843E-3
3.605000E-8	7.369098E-3
3.610000E-8	6.899750E-3
3.615000E-8	6.507485E-3
3.620000E-8	6.216284E-3
3.625000E-8	6.039850E-3
3.630000E-8	5.995314E-3
3.635000E-8	6.079249E-3
3.640000E-8	6.267674E-3
3.645000E-8	6.529755E-3
3.650000E-8	6.874058E-3
3.655000E-8	7.297157E-3
3.660000E-8	7.754514E-3
3.665000E-8	8.187890E-3
3.670000E-8	8.593859E-3
3.675000E-8	8.975846E-3
3.680000E-8	9.332139E-3
3.685000E-8	9.642182E-3
3.690000E-8	9.902550E-3
3.695000E-8	1.008412E-2
3.700000E-8	1.016463E-2
3.705000E-8	1.017148E-2
3.710000E-8	1.014407E-2
3.715000E-8	1.006870E-2
3.720000E-8	9.902548E-3
3.725000E-8	9.664448E-3
3.730000E-8	9.381812E-3
3.735000E-8	9.059778E-3
3.740000E-8	8.694920E-3
3.745000E-8	8.312932E-3
3.750000E-8	7.953213E-3
3.755000E-8	7.638031E-3
3.760000E-8	7.375950E-3
3.765000E-8	7.184100E-3
3.770000E-8	7.055629E-3
3.775000E-8	7.017944E-3
3.780000E-8	7.096740E-3
3.785000E-8	7.285164E-3
3.790000E-8	7.557523E-3
3.795000E-8	7.915529E-3
3.800000E-8	8.352331E-3
3.805000E-8	8.830244E-3
3.810000E-8	9.297879E-3
3.815000E-8	9.712412E-3
3.820000E-8	1.007384E-2
3.825000E-8	1.039417E-2
3.830000E-8	1.063226E-2
3.835000E-8	1.072990E-2
3.840000E-8	1.069564E-2
3.845000E-8	1.056888E-2
3.850000E-8	1.034449E-2
3.855000E-8	1.001389E-2
3.860000E-8	9.613059E-3
3.865000E-8	9.172832E-3
3.870000E-8	8.715475E-3
3.875000E-8	8.282099E-3
3.880000E-8	7.903537E-3
3.885000E-8	7.596920E-3
3.890000E-8	7.379376E-3
3.895000E-8	7.214933E-3
3.900000E-8	7.060768E-3
3.905000E-8	6.951140E-3
3.910000E-8	6.925446E-3
3.915000E-8	6.957993E-3
3.920000E-8	7.012807E-3
3.925000E-8	7.115584E-3
3.930000E-8	7.271463E-3
3.935000E-8	7.461600E-3
3.940000E-8	7.699700E-3
3.945000E-8	8.004605E-3
3.950000E-8	8.336916E-3
3.955000E-8	8.682931E-3
3.960000E-8	9.061492E-3
3.965000E-8	9.436627E-3
3.970000E-8	9.746671E-3
3.975000E-8	9.972779E-3
3.980000E-8	1.010468E-2
3.985000E-8	1.012352E-2
3.990000E-8	1.001046E-2
3.995000E-8	9.767225E-3
4.000000E-8	9.421209E-3
4.005000E-8	9.008389E-3
4.010000E-8	8.557884E-3
4.015000E-8	8.073120E-3
4.020000E-8	7.595208E-3
4.025000E-8	7.178962E-3
4.030000E-8	6.844938E-3
4.035000E-8	6.591422E-3
4.040000E-8	6.454387E-3
4.045000E-8	6.457813E-3
4.050000E-8	6.584571E-3
4.055000E-8	6.824384E-3
4.060000E-8	7.163547E-3
4.065000E-8	7.576368E-3
4.070000E-8	7.997753E-3
4.075000E-8	8.407147E-3
4.080000E-8	8.797699E-3
4.085000E-8	9.150566E-3
4.090000E-8	9.424637E-3
4.095000E-8	9.601070E-3
4.100000E-8	9.681579E-3
4.105000E-8	9.695282E-3
4.110000E-8	9.659310E-3
4.115000E-8	9.563385E-3
4.120000E-8	9.414358E-3
4.125000E-8	9.231073E-3
4.130000E-8	9.051213E-3
4.135000E-8	8.838808E-3
4.140000E-8	8.575014E-3
4.145000E-8	8.302655E-3
4.150000E-8	8.054277E-3
4.155000E-8	7.816178E-3
4.160000E-8	7.600347E-3
4.165000E-8	7.446182E-3
4.170000E-8	7.346831E-3
4.175000E-8	7.280027E-3
4.180000E-8	7.269749E-3
4.185000E-8	7.315999E-3
4.190000E-8	7.396508E-3
4.195000E-8	7.536970E-3
4.200000E-8	7.761366E-3
4.205000E-8	8.009743E-3
4.210000E-8	8.225575E-3
4.215000E-8	8.437980E-3
4.220000E-8	8.643533E-3
4.225000E-8	8.816541E-3
4.230000E-8	8.962141E-3
4.235000E-8	9.075195E-3
4.240000E-8	9.145425E-3
4.245000E-8	9.167693E-3
4.250000E-8	9.160841E-3
4.255000E-8	9.092323E-3
4.260000E-8	8.967277E-3
4.265000E-8	8.828528E-3
4.270000E-8	8.676076E-3
4.275000E-8	8.477374E-3
4.280000E-8	8.270108E-3
4.285000E-8	8.095387E-3
4.290000E-8	7.954926E-3
4.295000E-8	7.823029E-3
4.300000E-8	7.716827E-3
4.305000E-8	7.668865E-3
4.310000E-8	7.672291E-3
4.315000E-8	7.725393E-3
4.320000E-8	7.831596E-3
4.325000E-8	7.965206E-3
4.330000E-8	8.115946E-3
4.335000E-8	8.285528E-3
4.340000E-8	8.468813E-3
4.345000E-8	8.676079E-3
4.350000E-8	8.910753E-3
4.355000E-8	9.138575E-3
4.360000E-8	9.337276E-3
4.365000E-8	9.535978E-3
4.370000E-8	9.729541E-3
4.375000E-8	9.870003E-3
4.380000E-8	9.947085E-3
4.385000E-8	1.000190E-2
4.390000E-8	1.002931E-2
4.395000E-8	9.971066E-3
4.400000E-8	9.799771E-3
4.405000E-8	9.544542E-3
4.410000E-8	9.237924E-3
4.415000E-8	8.861075E-3
4.420000E-8	8.443116E-3
4.425000E-8	8.057703E-3
4.430000E-8	7.733956E-3
4.435000E-8	7.471875E-3
4.440000E-8	7.268035E-3
4.445000E-8	7.161832E-3
4.450000E-8	7.172110E-3
4.455000E-8	7.295443E-3
4.460000E-8	7.500997E-3
4.465000E-8	7.776781E-3
4.470000E-8	8.117658E-3
4.475000E-8	8.480803E-3
4.480000E-8	8.821679E-3
4.485000E-8	9.143713E-3
4.490000E-8	9.450331E-3
4.495000E-8	9.674727E-3
4.500000E-8	9.794633E-3
4.505000E-8	9.842595E-3
4.510000E-8	9.837456E-3
4.515000E-8	9.753521E-3
4.520000E-8	9.628476E-3
4.525000E-8	9.496579E-3
4.530000E-8	9.347552E-3
4.535000E-8	9.169406E-3
4.540000E-8	8.987833E-3
4.545000E-8	8.816539E-3
4.550000E-8	8.665800E-3
4.555000E-8	8.535616E-3
4.560000E-8	8.395154E-3
4.565000E-8	8.246128E-3
4.570000E-8	8.122796E-3
4.575000E-8	8.045714E-3
4.580000E-8	7.987474E-3
4.585000E-8	7.960067E-3
4.590000E-8	7.984049E-3
4.595000E-8	8.038863E-3
4.600000E-8	8.079974E-3
4.605000E-8	8.136501E-3
4.610000E-8	8.251268E-3
4.615000E-8	8.376313E-3
4.620000E-8	8.473951E-3
4.625000E-8	8.585292E-3
4.630000E-8	8.729179E-3
4.635000E-8	8.849085E-3
4.640000E-8	8.914177E-3
4.645000E-8	8.970704E-3
4.650000E-8	9.035796E-3
4.655000E-8	9.066629E-3
4.660000E-8	9.054638E-3
4.665000E-8	9.032370E-3
4.670000E-8	8.996398E-3
4.675000E-8	8.886770E-3
4.680000E-8	8.705198E-3
4.685000E-8	8.494505E-3
4.690000E-8	8.268396E-3
4.695000E-8	8.002890E-3
4.700000E-8	7.720254E-3
4.705000E-8	7.482154E-3
4.710000E-8	7.305721E-3
4.715000E-8	7.168686E-3
4.720000E-8	7.093316E-3
4.725000E-8	7.112159E-3
4.730000E-8	7.233779E-3
4.735000E-8	7.430768E-3
4.740000E-8	7.684284E-3
4.745000E-8	7.968633E-3
4.750000E-8	8.259834E-3
4.755000E-8	8.530479E-3
4.760000E-8	8.761726E-3
4.765000E-8	8.939872E-3
4.770000E-8	9.073482E-3
4.775000E-8	9.128296E-3
4.780000E-8	9.107740E-3
4.785000E-8	9.046074E-3
4.790000E-8	8.975843E-3
4.795000E-8	8.890196E-3
4.800000E-8	8.821678E-3
4.805000E-8	8.806262E-3
4.810000E-8	8.823391E-3
4.815000E-8	8.833669E-3
4.820000E-8	8.835382E-3
4.825000E-8	8.852512E-3
4.830000E-8	8.876493E-3
4.835000E-8	8.869642E-3
4.840000E-8	8.811401E-3
4.845000E-8	8.722328E-3
4.850000E-8	8.593857E-3
4.855000E-8	8.395155E-3
4.860000E-8	8.158768E-3
4.865000E-8	7.961779E-3
4.870000E-8	7.845299E-3
4.875000E-8	7.799049E-3
4.880000E-8	7.812753E-3
4.885000E-8	7.896687E-3
4.890000E-8	8.023446E-3
4.895000E-8	8.169046E-3
4.900000E-8	8.318073E-3
4.905000E-8	8.467099E-3
4.910000E-8	8.587005E-3
4.915000E-8	8.667514E-3
4.920000E-8	8.694921E-3
4.925000E-8	8.631542E-3
4.930000E-8	8.472238E-3
4.935000E-8	8.249554E-3
4.940000E-8	7.990899E-3
4.945000E-8	7.730531E-3
4.950000E-8	7.526691E-3
4.955000E-8	7.394794E-3
4.960000E-8	7.304008E-3
4.965000E-8	7.271462E-3
4.970000E-8	7.315999E-3
4.975000E-8	7.377665E-3
4.980000E-8	7.429053E-3
4.985000E-8	7.514700E-3
4.990000E-8	7.653449E-3
4.995000E-8	7.787059E-3
5.000000E-8	7.903539E-3
5.005000E-8	8.025159E-3
5.010000E-8	8.129648E-3
5.015000E-8	8.208444E-3
5.020000E-8	8.280388E-3
5.025000E-8	8.331776E-3
5.030000E-8	8.343767E-3
5.035000E-8	8.369461E-3
5.040000E-8	8.427701E-3
5.045000E-8	8.472237E-3
5.050000E-8	8.503070E-3
5.055000E-8	8.545894E-3
5.060000E-8	8.587004E-3
5.065000E-8	8.617837E-3
5.070000E-8	8.655522E-3
5.075000E-8	8.679503E-3
5.080000E-8	8.648670E-3
5.085000E-8	8.602421E-3
5.090000E-8	8.573301E-3
5.095000E-8	8.527051E-3
5.100000E-8	8.436265E-3
5.105000E-8	8.338627E-3
5.110000E-8	8.249554E-3
5.115000E-8	8.153629E-3
5.120000E-8	8.090250E-3
5.125000E-8	8.091963E-3
5.130000E-8	8.121084E-3
5.135000E-8	8.163907E-3
5.140000E-8	8.244416E-3
5.145000E-8	8.360896E-3
5.150000E-8	8.501358E-3
5.155000E-8	8.636681E-3
5.160000E-8	8.737745E-3
5.165000E-8	8.778855E-3
5.170000E-8	8.775429E-3
5.175000E-8	8.717189E-3
5.180000E-8	8.597283E-3
5.185000E-8	8.424275E-3
5.190000E-8	8.232425E-3
5.195000E-8	8.038861E-3
5.200000E-8	7.867566E-3
5.205000E-8	7.763077E-3
5.210000E-8	7.728818E-3
5.215000E-8	7.761364E-3
5.220000E-8	7.857289E-3
5.225000E-8	7.999464E-3
5.230000E-8	8.143352E-3
5.235000E-8	8.246129E-3
5.240000E-8	8.304369E-3
5.245000E-8	8.321499E-3
5.250000E-8	8.263259E-3
5.255000E-8	8.134788E-3
5.260000E-8	7.997752E-3
5.265000E-8	7.857290E-3
5.270000E-8	7.706551E-3
5.275000E-8	7.581506E-3
5.280000E-8	7.569515E-3
5.285000E-8	7.658588E-3
5.290000E-8	7.807614E-3
5.295000E-8	7.987473E-3
5.300000E-8	8.215295E-3
5.305000E-8	8.482514E-3
5.310000E-8	8.742882E-3
5.315000E-8	8.955288E-3
5.320000E-8	9.076907E-3
5.325000E-8	9.114592E-3
5.330000E-8	9.047787E-3
5.335000E-8	8.871354E-3
5.340000E-8	8.610986E-3
5.345000E-8	8.311220E-3
5.350000E-8	8.021732E-3
5.355000E-8	7.749374E-3
5.360000E-8	7.511274E-3
5.365000E-8	7.322850E-3
5.370000E-8	7.223499E-3
5.375000E-8	7.230351E-3
5.380000E-8	7.312573E-3
5.385000E-8	7.459886E-3
5.390000E-8	7.655162E-3
5.395000E-8	7.859003E-3
5.400000E-8	8.020020E-3
5.405000E-8	8.170759E-3
5.410000E-8	8.330064E-3
5.415000E-8	8.461960E-3
5.420000E-8	8.559598E-3
5.425000E-8	8.664088E-3
5.430000E-8	8.763439E-3
5.435000E-8	8.819966E-3
5.440000E-8	8.859364E-3
5.445000E-8	8.903900E-3
5.450000E-8	8.943298E-3
5.455000E-8	8.972418E-3
5.460000E-8	8.992973E-3
5.465000E-8	8.992973E-3
5.470000E-8	8.962140E-3
5.475000E-8	8.922743E-3
5.480000E-8	8.850799E-3
5.485000E-8	8.718902E-3
5.490000E-8	8.557885E-3
5.495000E-8	8.405433E-3
5.500000E-8	8.280388E-3
5.505000E-8	8.208444E-3
5.510000E-8	8.177611E-3
5.515000E-8	8.184463E-3
5.520000E-8	8.276963E-3
5.525000E-8	8.463674E-3
5.530000E-8	8.646960E-3
5.535000E-8	8.773718E-3
5.540000E-8	8.910754E-3
5.545000E-8	9.070058E-3
5.550000E-8	9.181399E-3
5.555000E-8	9.231074E-3
5.560000E-8	9.272185E-3
5.565000E-8	9.291027E-3
5.570000E-8	9.249917E-3
5.575000E-8	9.183111E-3
5.580000E-8	9.106029E-3
5.585000E-8	8.991261E-3
5.590000E-8	8.831957E-3
5.595000E-8	8.653810E-3
5.600000E-8	8.480803E-3
5.605000E-8	8.321499E-3
5.610000E-8	8.172472E-3
5.615000E-8	8.023446E-3
5.620000E-8	7.898401E-3
5.625000E-8	7.824744E-3
5.630000E-8	7.766504E-3
5.635000E-8	7.696273E-3
5.640000E-8	7.627755E-3
5.645000E-8	7.602061E-3
5.650000E-8	7.619190E-3
5.655000E-8	7.648311E-3
5.660000E-8	7.665440E-3
5.665000E-8	7.679144E-3
5.670000E-8	7.709977E-3
5.675000E-8	7.763078E-3
5.680000E-8	7.817892E-3
5.685000E-8	7.896688E-3
5.690000E-8	8.021733E-3
5.695000E-8	8.167333E-3
5.700000E-8	8.309508E-3
5.705000E-8	8.451682E-3
5.710000E-8	8.598995E-3
5.715000E-8	8.729179E-3
5.720000E-8	8.833669E-3
5.725000E-8	8.921029E-3
5.730000E-8	8.955288E-3
5.735000E-8	8.929594E-3
5.740000E-8	8.867928E-3
5.745000E-8	8.790846E-3
5.750000E-8	8.679504E-3
5.755000E-8	8.568163E-3
5.760000E-8	8.494506E-3
5.765000E-8	8.448256E-3
5.770000E-8	8.403720E-3
5.775000E-8	8.388304E-3
5.780000E-8	8.408859E-3
5.785000E-8	8.455109E-3
5.790000E-8	8.528766E-3
5.795000E-8	8.646959E-3
5.800000E-8	8.773717E-3
5.805000E-8	8.881633E-3
5.810000E-8	8.975845E-3
5.815000E-8	9.061492E-3
5.820000E-8	9.104316E-3
5.825000E-8	9.102603E-3
5.830000E-8	9.075196E-3
5.835000E-8	9.044363E-3
5.840000E-8	9.008391E-3
5.845000E-8	8.936447E-3
5.850000E-8	8.838809E-3
5.855000E-8	8.715476E-3
5.860000E-8	8.549320E-3
5.865000E-8	8.372887E-3
5.870000E-8	8.239277E-3
5.875000E-8	8.170759E-3
5.880000E-8	8.143352E-3
5.885000E-8	8.143352E-3
5.890000E-8	8.186176E-3
5.895000E-8	8.249555E-3
5.900000E-8	8.328351E-3
5.905000E-8	8.405433E-3
5.910000E-8	8.479090E-3
5.915000E-8	8.539043E-3
5.920000E-8	8.590431E-3
5.925000E-8	8.650384E-3
5.930000E-8	8.691495E-3
5.935000E-8	8.691495E-3
5.940000E-8	8.662375E-3
5.945000E-8	8.631541E-3
5.950000E-8	8.588718E-3
5.955000E-8	8.521913E-3
5.960000E-8	8.456821E-3
5.965000E-8	8.412284E-3
5.970000E-8	8.355757E-3
5.975000E-8	8.271823E-3
5.980000E-8	8.198166E-3
5.985000E-8	8.155343E-3
5.990000E-8	8.124510E-3
5.995000E-8	8.079974E-3
6.000000E-8	8.038863E-3
6.005000E-8	8.025159E-3
6.010000E-8	8.028585E-3
6.015000E-8	8.028585E-3
6.020000E-8	8.033724E-3
6.025000E-8	8.066269E-3
6.030000E-8	8.127935E-3
6.035000E-8	8.189601E-3
6.040000E-8	8.256406E-3
6.045000E-8	8.333489E-3
6.050000E-8	8.388303E-3
6.055000E-8	8.396868E-3
6.060000E-8	8.390017E-3
6.065000E-8	8.420850E-3
6.070000E-8	8.453396E-3
6.075000E-8	8.446544E-3
6.080000E-8	8.408859E-3
6.085000E-8	8.415711E-3
6.090000E-8	8.472238E-3
6.095000E-8	8.520201E-3
6.100000E-8	8.527053E-3
6.105000E-8	8.549321E-3
6.110000E-8	8.602422E-3
6.115000E-8	8.624690E-3
6.120000E-8	8.578441E-3
6.125000E-8	8.492793E-3
6.130000E-8	8.379739E-3
6.135000E-8	8.230712E-3
6.140000E-8	8.073121E-3
6.145000E-8	7.924095E-3
6.150000E-8	7.787059E-3
6.155000E-8	7.679144E-3
6.160000E-8	7.590071E-3
6.165000E-8	7.519840E-3
6.170000E-8	7.507850E-3
6.175000E-8	7.574655E-3
6.180000E-8	7.687709E-3
6.185000E-8	7.824745E-3
6.190000E-8	7.989188E-3
6.195000E-8	8.169048E-3
6.200000E-8	8.350620E-3
6.205000E-8	8.533905E-3
6.210000E-8	8.715477E-3
6.215000E-8	8.859364E-3
6.220000E-8	8.957002E-3
6.225000E-8	9.027233E-3
6.230000E-8	9.064917E-3
6.235000E-8	9.059778E-3
6.240000E-8	9.016955E-3
6.245000E-8	8.970705E-3
6.250000E-8	8.915891E-3
6.255000E-8	8.831957E-3
6.260000E-8	8.725754E-3
6.265000E-8	8.622977E-3
6.270000E-8	8.509923E-3
6.275000E-8	8.352332E-3
6.280000E-8	8.157056E-3
6.285000E-8	7.977196E-3
6.290000E-8	7.792198E-3
6.295000E-8	7.586645E-3
6.300000E-8	7.391369E-3
6.305000E-8	7.254333E-3
6.310000E-8	7.185815E-3
6.315000E-8	7.180677E-3
6.320000E-8	7.242343E-3
6.325000E-8	7.370814E-3
6.330000E-8	7.564377E-3
6.335000E-8	7.788773E-3
6.340000E-8	8.009743E-3
6.345000E-8	8.230713E-3
6.350000E-8	8.465387E-3
6.355000E-8	8.676079E-3
6.360000E-8	8.801124E-3
6.365000E-8	8.842235E-3
6.370000E-8	8.831957E-3
6.375000E-8	8.768577E-3
6.380000E-8	8.664088E-3
6.385000E-8	8.551033E-3
6.390000E-8	8.436266E-3
6.395000E-8	8.306082E-3
6.400000E-8	8.196453E-3
6.405000E-8	8.162195E-3
6.410000E-8	8.165621E-3
6.415000E-8	8.153630E-3
6.420000E-8	8.184463E-3
6.425000E-8	8.282101E-3
6.430000E-8	8.379739E-3
6.435000E-8	8.436267E-3
6.440000E-8	8.446544E-3
6.445000E-8	8.403720E-3
6.450000E-8	8.347193E-3
6.455000E-8	8.288953E-3
6.460000E-8	8.187889E-3
6.465000E-8	8.042288E-3
6.470000E-8	7.925808E-3
6.475000E-8	7.847012E-3
6.480000E-8	7.778494E-3
6.485000E-8	7.749374E-3
6.490000E-8	7.776782E-3
6.495000E-8	7.811041E-3
6.500000E-8	7.860716E-3
6.505000E-8	7.961780E-3
6.510000E-8	8.107380E-3
6.515000E-8	8.239277E-3
6.520000E-8	8.347193E-3
6.525000E-8	8.446544E-3
6.530000E-8	8.530479E-3
6.535000E-8	8.568163E-3
6.540000E-8	8.537330E-3
6.545000E-8	8.465386E-3
6.550000E-8	8.371174E-3
6.555000E-8	8.246129E-3
6.560000E-8	8.071408E-3
6.565000E-8	7.874419E-3
6.570000E-8	7.685995E-3
6.575000E-8	7.540394E-3
6.580000E-8	7.449608E-3
6.585000E-8	7.399932E-3
6.590000E-8	7.382803E-3
6.595000E-8	7.408497E-3
6.600000E-8	7.497571E-3
6.605000E-8	7.667153E-3
6.610000E-8	7.893262E-3
6.615000E-8	8.129649E-3
6.620000E-8	8.342055E-3
6.625000E-8	8.554461E-3
6.630000E-8	8.756589E-3
6.635000E-8	8.902190E-3
6.640000E-8	8.982698E-3
6.645000E-8	9.022096E-3
6.650000E-8	9.020383E-3
6.655000E-8	8.962142E-3
6.660000E-8	8.876494E-3
6.665000E-8	8.772004E-3
6.670000E-8	8.631542E-3
6.675000E-8	8.470525E-3
6.680000E-8	8.323211E-3
6.685000E-8	8.208443E-3
6.690000E-8	8.114230E-3
6.695000E-8	8.037148E-3
6.700000E-8	7.980620E-3
6.705000E-8	7.958352E-3
6.710000E-8	7.966917E-3
6.715000E-8	7.980620E-3
6.720000E-8	7.997750E-3
6.725000E-8	8.013167E-3
6.730000E-8	8.008028E-3
6.735000E-8	7.989186E-3
6.740000E-8	7.985761E-3
6.745000E-8	7.989187E-3
6.750000E-8	7.997752E-3
6.755000E-8	8.018307E-3
6.760000E-8	8.050854E-3
6.765000E-8	8.103955E-3
6.770000E-8	8.182751E-3
6.775000E-8	8.278676E-3
6.780000E-8	8.378027E-3
6.785000E-8	8.485943E-3
6.790000E-8	8.590432E-3
6.795000E-8	8.665802E-3
6.800000E-8	8.725755E-3
6.805000E-8	8.785708E-3
6.810000E-8	8.814828E-3
6.815000E-8	8.760014E-3
6.820000E-8	8.634969E-3
6.825000E-8	8.494507E-3
6.830000E-8	8.333490E-3
6.835000E-8	8.129650E-3
6.840000E-8	7.894976E-3
6.845000E-8	7.665441E-3
6.850000E-8	7.468453E-3
6.855000E-8	7.310862E-3
6.860000E-8	7.189243E-3
6.865000E-8	7.122438E-3
6.870000E-8	7.129289E-3
6.875000E-8	7.187529E-3
6.880000E-8	7.274890E-3
6.885000E-8	7.399935E-3
6.890000E-8	7.574655E-3
6.895000E-8	7.766505E-3
6.900000E-8	7.961781E-3
6.905000E-8	8.158770E-3
6.910000E-8	8.314648E-3
6.915000E-8	8.439693E-3
6.920000E-8	8.559599E-3
6.925000E-8	8.658950E-3
6.930000E-8	8.703487E-3
6.935000E-8	8.710339E-3
6.940000E-8	8.712052E-3
6.945000E-8	8.677793E-3
6.950000E-8	8.587007E-3
6.955000E-8	8.480804E-3
6.960000E-8	8.371175E-3
6.965000E-8	8.258121E-3
6.970000E-8	8.136502E-3
6.975000E-8	8.008031E-3
6.980000E-8	7.877847E-3
6.985000E-8	7.776783E-3
6.990000E-8	7.699700E-3
6.995000E-8	7.648312E-3
7.000000E-8	7.638034E-3
7.005000E-8	7.662015E-3
7.010000E-8	7.691135E-3
7.015000E-8	7.751088E-3
7.020000E-8	7.855578E-3
7.025000E-8	7.989188E-3
7.030000E-8	8.139927E-3
7.035000E-8	8.287241E-3
7.040000E-8	8.415712E-3
7.045000E-8	8.535618E-3
7.050000E-8	8.669228E-3
7.055000E-8	8.778857E-3
7.060000E-8	8.826819E-3
7.065000E-8	8.826819E-3
7.070000E-8	8.806264E-3
7.075000E-8	8.753162E-3
7.080000E-8	8.658950E-3
7.085000E-8	8.540757E-3
7.090000E-8	8.434554E-3
7.095000E-8	8.357471E-3
7.100000E-8	8.290666E-3
7.105000E-8	8.230712E-3
7.110000E-8	8.205018E-3
7.115000E-8	8.222148E-3
7.120000E-8	8.283814E-3
7.125000E-8	8.374600E-3
7.130000E-8	8.480803E-3
7.135000E-8	8.588719E-3
7.140000E-8	8.705200E-3
7.145000E-8	8.816542E-3
7.150000E-8	8.886772E-3
7.155000E-8	8.921031E-3
7.160000E-8	8.953577E-3
7.165000E-8	8.975845E-3
7.170000E-8	8.957003E-3
7.175000E-8	8.898762E-3
7.180000E-8	8.826818E-3
7.185000E-8	8.751448E-3
7.190000E-8	8.660662E-3
7.195000E-8	8.561311E-3
7.200000E-8	8.477376E-3
7.205000E-8	8.415710E-3
7.210000E-8	8.388303E-3
7.215000E-8	8.391729E-3
7.220000E-8	8.403720E-3
7.225000E-8	8.434553E-3
7.230000E-8	8.494506E-3
7.235000E-8	8.535617E-3
7.240000E-8	8.540756E-3
7.245000E-8	8.544182E-3
7.250000E-8	8.571589E-3
7.255000E-8	8.563024E-3
7.260000E-8	8.537330E-3
7.265000E-8	8.539043E-3
7.270000E-8	8.557885E-3
7.275000E-8	8.575015E-3
7.280000E-8	8.604135E-3
7.285000E-8	8.646959E-3
7.290000E-8	8.676079E-3
7.295000E-8	8.681218E-3
7.300000E-8	8.658950E-3
7.305000E-8	8.621265E-3
7.310000E-8	8.585293E-3
7.315000E-8	8.551034E-3
7.320000E-8	8.504784E-3
7.325000E-8	8.472238E-3
7.330000E-8	8.467099E-3
7.335000E-8	8.458534E-3
7.340000E-8	8.437979E-3
7.345000E-8	8.443117E-3
7.350000E-8	8.472238E-3
7.355000E-8	8.509923E-3
7.360000E-8	8.551033E-3
7.365000E-8	8.595570E-3
7.370000E-8	8.633255E-3
7.375000E-8	8.660663E-3
7.380000E-8	8.667514E-3
7.385000E-8	8.617839E-3
7.390000E-8	8.549321E-3
7.395000E-8	8.508211E-3
7.400000E-8	8.473952E-3
7.405000E-8	8.415711E-3
7.410000E-8	8.336916E-3
7.415000E-8	8.246129E-3
7.420000E-8	8.145066E-3
7.425000E-8	8.071409E-3
7.430000E-8	8.049140E-3
7.435000E-8	8.050853E-3
7.440000E-8	8.059418E-3
7.445000E-8	8.090251E-3
7.450000E-8	8.136501E-3
7.455000E-8	8.172473E-3
7.460000E-8	8.225574E-3
7.465000E-8	8.287240E-3
7.470000E-8	8.328351E-3
7.475000E-8	8.326638E-3
7.480000E-8	8.294092E-3
7.485000E-8	8.223861E-3
7.490000E-8	8.126223E-3
7.495000E-8	8.014882E-3
7.500000E-8	7.906966E-3
7.505000E-8	7.817893E-3
7.510000E-8	7.751088E-3
7.515000E-8	7.691135E-3
7.520000E-8	7.631182E-3
7.525000E-8	7.615765E-3
7.530000E-8	7.650024E-3
7.535000E-8	7.684283E-3
7.540000E-8	7.733958E-3
7.545000E-8	7.826457E-3
7.550000E-8	7.929234E-3
7.555000E-8	8.009742E-3
7.560000E-8	8.085112E-3
7.565000E-8	8.146778E-3
7.570000E-8	8.182750E-3
7.575000E-8	8.206731E-3
7.580000E-8	8.242703E-3
7.585000E-8	8.280388E-3
7.590000E-8	8.309508E-3
7.595000E-8	8.304369E-3
7.600000E-8	8.264971E-3
7.605000E-8	8.218722E-3
7.610000E-8	8.177611E-3
7.615000E-8	8.136500E-3
7.620000E-8	8.105668E-3
7.625000E-8	8.098816E-3
7.630000E-8	8.095390E-3
7.635000E-8	8.076548E-3
7.640000E-8	8.064557E-3
7.645000E-8	8.076548E-3
7.650000E-8	8.109094E-3
7.655000E-8	8.155343E-3
7.660000E-8	8.201593E-3
7.665000E-8	8.244417E-3
7.670000E-8	8.294092E-3
7.675000E-8	8.338629E-3
7.680000E-8	8.347194E-3
7.685000E-8	8.345481E-3
7.690000E-8	8.364323E-3
7.695000E-8	8.398582E-3
7.700000E-8	8.425989E-3
7.705000E-8	8.477378E-3
7.710000E-8	8.551034E-3
7.715000E-8	8.631543E-3
7.720000E-8	8.698348E-3
7.725000E-8	8.744598E-3
7.730000E-8	8.765153E-3
7.735000E-8	8.778857E-3
7.740000E-8	8.826819E-3
7.745000E-8	8.898763E-3
7.750000E-8	8.943300E-3
7.755000E-8	8.972420E-3
7.760000E-8	9.011818E-3
7.765000E-8	9.071771E-3
7.770000E-8	9.126586E-3
7.775000E-8	9.155706E-3
7.780000E-8	9.157419E-3
7.785000E-8	9.140289E-3
7.790000E-8	9.094040E-3
7.795000E-8	8.994689E-3
7.800000E-8	8.866217E-3
7.805000E-8	8.729181E-3
7.810000E-8	8.551035E-3
7.815000E-8	8.340342E-3
7.820000E-8	8.148492E-3
7.825000E-8	7.985761E-3
7.830000E-8	7.850439E-3
7.835000E-8	7.773356E-3
7.840000E-8	7.727106E-3
7.845000E-8	7.708264E-3
7.850000E-8	7.769930E-3
7.855000E-8	7.869281E-3
7.860000E-8	7.948076E-3
7.865000E-8	8.049140E-3
7.870000E-8	8.223861E-3
7.875000E-8	8.367749E-3
7.880000E-8	8.456822E-3
7.885000E-8	8.578441E-3
7.890000E-8	8.703486E-3
7.895000E-8	8.763440E-3
7.900000E-8	8.787421E-3
7.905000E-8	8.790847E-3
7.910000E-8	8.742884E-3
7.915000E-8	8.658950E-3
7.920000E-8	8.583580E-3
7.925000E-8	8.482517E-3
7.930000E-8	8.345481E-3
7.935000E-8	8.198167E-3
7.940000E-8	8.045715E-3
7.945000E-8	7.918957E-3
7.950000E-8	7.841874E-3
7.955000E-8	7.816180E-3
7.960000E-8	7.821318E-3
7.965000E-8	7.872707E-3
7.970000E-8	7.975483E-3
7.975000E-8	8.107380E-3
7.980000E-8	8.259832E-3
7.985000E-8	8.417424E-3
7.990000E-8	8.564737E-3
7.995000E-8	8.693208E-3
8.000000E-8	8.782282E-3
8.005000E-8	8.813115E-3
8.010000E-8	8.813115E-3
8.015000E-8	8.797699E-3
8.020000E-8	8.746310E-3
8.025000E-8	8.660663E-3
8.030000E-8	8.571590E-3
8.035000E-8	8.489369E-3
8.040000E-8	8.408860E-3
8.045000E-8	8.352333E-3
8.050000E-8	8.343768E-3
8.055000E-8	8.366037E-3
8.060000E-8	8.393444E-3
8.065000E-8	8.439693E-3
8.070000E-8	8.504785E-3
8.075000E-8	8.580155E-3
8.080000E-8	8.669228E-3
8.085000E-8	8.739459E-3
8.090000E-8	8.760014E-3
8.095000E-8	8.763440E-3
8.100000E-8	8.789134E-3
8.105000E-8	8.789134E-3
8.110000E-8	8.730894E-3
8.115000E-8	8.691496E-3
8.120000E-8	8.686357E-3
8.125000E-8	8.641820E-3
8.130000E-8	8.598997E-3
8.135000E-8	8.587006E-3
8.140000E-8	8.544183E-3
8.145000E-8	8.472239E-3
8.150000E-8	8.436267E-3
8.155000E-8	8.417425E-3
8.160000E-8	8.376314E-3
8.165000E-8	8.384879E-3
8.170000E-8	8.461962E-3
8.175000E-8	8.535619E-3
8.180000E-8	8.612701E-3
8.185000E-8	8.706913E-3
8.190000E-8	8.783996E-3
8.195000E-8	8.842236E-3
8.200000E-8	8.900476E-3
8.205000E-8	8.924457E-3
8.210000E-8	8.898763E-3
8.215000E-8	8.843948E-3
8.220000E-8	8.746310E-3
8.225000E-8	8.607562E-3
8.230000E-8	8.477378E-3
8.235000E-8	8.343768E-3
8.240000E-8	8.186176E-3
8.245000E-8	8.066270E-3
8.250000E-8	8.021733E-3
8.255000E-8	8.020020E-3
8.260000E-8	8.023446E-3
8.265000E-8	8.066270E-3
8.270000E-8	8.160482E-3
8.275000E-8	8.285527E-3
8.280000E-8	8.400294E-3
8.285000E-8	8.482515E-3
8.290000E-8	8.532191E-3
8.295000E-8	8.527052E-3
8.300000E-8	8.461960E-3
8.305000E-8	8.381451E-3
8.310000E-8	8.306082E-3
8.315000E-8	8.210157E-3
8.320000E-8	8.124509E-3
8.325000E-8	8.085112E-3
8.330000E-8	8.052566E-3
8.335000E-8	8.013168E-3
8.340000E-8	8.006316E-3
8.345000E-8	8.026872E-3
8.350000E-8	8.050853E-3
8.355000E-8	8.095390E-3
8.360000E-8	8.162195E-3
8.365000E-8	8.215296E-3
8.370000E-8	8.251268E-3
8.375000E-8	8.299231E-3
8.380000E-8	8.342054E-3
8.385000E-8	8.374601E-3
8.390000E-8	8.400295E-3
8.395000E-8	8.400295E-3
8.400000E-8	8.352332E-3
8.405000E-8	8.288953E-3
8.410000E-8	8.189603E-3
8.415000E-8	8.033725E-3
8.420000E-8	7.857291E-3
8.425000E-8	7.694561E-3
8.430000E-8	7.499285E-3
8.435000E-8	7.285167E-3
8.440000E-8	7.134428E-3
8.445000E-8	7.069335E-3
8.450000E-8	7.050493E-3
8.455000E-8	7.084752E-3
8.460000E-8	7.223500E-3
8.465000E-8	7.442757E-3
8.470000E-8	7.697986E-3
8.475000E-8	7.965205E-3
8.480000E-8	8.191314E-3
8.485000E-8	8.350618E-3
8.490000E-8	8.479089E-3
8.495000E-8	8.595570E-3
8.500000E-8	8.641820E-3
8.505000E-8	8.588718E-3
8.510000E-8	8.470525E-3
8.515000E-8	8.340342E-3
8.520000E-8	8.199880E-3
8.525000E-8	8.045715E-3
8.530000E-8	7.929235E-3
8.535000E-8	7.889837E-3
8.540000E-8	7.915532E-3
8.545000E-8	7.963494E-3
8.550000E-8	8.021734E-3
8.555000E-8	8.107381E-3
8.560000E-8	8.206732E-3
8.565000E-8	8.299231E-3
8.570000E-8	8.408860E-3
8.575000E-8	8.540757E-3
8.580000E-8	8.662376E-3
8.585000E-8	8.763440E-3
8.590000E-8	8.864504E-3
8.595000E-8	8.941586E-3
8.600000E-8	8.967280E-3
8.605000E-8	8.977558E-3
8.610000E-8	9.010103E-3
8.615000E-8	9.022094E-3
8.620000E-8	8.999826E-3
8.625000E-8	8.963854E-3
8.630000E-8	8.909039E-3
8.635000E-8	8.801124E-3
8.640000E-8	8.652097E-3
8.645000E-8	8.503071E-3
8.650000E-8	8.333489E-3
8.655000E-8	8.134788E-3
8.660000E-8	7.965206E-3
8.665000E-8	7.852152E-3
8.670000E-8	7.754514E-3
8.675000E-8	7.675718E-3
8.680000E-8	7.682570E-3
8.685000E-8	7.768218E-3
8.690000E-8	7.886411E-3
8.695000E-8	8.047428E-3
8.700000E-8	8.240991E-3
8.705000E-8	8.419138E-3
8.710000E-8	8.576729E-3
8.715000E-8	8.729181E-3
8.720000E-8	8.847374E-3
8.725000E-8	8.914179E-3
8.730000E-8	8.943300E-3
8.735000E-8	8.915893E-3
8.740000E-8	8.814829E-3
8.745000E-8	8.681219E-3
8.750000E-8	8.547609E-3
8.755000E-8	8.386592E-3
8.760000E-8	8.208445E-3
8.765000E-8	8.076548E-3
8.770000E-8	7.994326E-3
8.775000E-8	7.941224E-3
8.780000E-8	7.944650E-3
8.785000E-8	8.006316E-3
8.790000E-8	8.105667E-3
8.795000E-8	8.220434E-3
8.800000E-8	8.340341E-3
8.805000E-8	8.427701E-3
8.810000E-8	8.475664E-3
8.815000E-8	8.513349E-3
8.820000E-8	8.516775E-3
8.825000E-8	8.492794E-3
8.830000E-8	8.485943E-3
8.835000E-8	8.489369E-3
8.840000E-8	8.456823E-3
8.845000E-8	8.425990E-3
8.850000E-8	8.427702E-3
8.855000E-8	8.444832E-3
8.860000E-8	8.467100E-3
8.865000E-8	8.506497E-3
8.870000E-8	8.540756E-3
8.875000E-8	8.556173E-3
8.880000E-8	8.554460E-3
8.885000E-8	8.511636E-3
8.890000E-8	8.415711E-3
8.895000E-8	8.295805E-3
8.900000E-8	8.160482E-3
8.905000E-8	8.008030E-3
8.910000E-8	7.894976E-3
8.915000E-8	7.831597E-3
8.920000E-8	7.768217E-3
8.925000E-8	7.716829E-3
8.930000E-8	7.737384E-3
8.935000E-8	7.771643E-3
8.940000E-8	7.764791E-3
8.945000E-8	7.780208E-3
8.950000E-8	7.852152E-3
8.955000E-8	7.908679E-3
8.960000E-8	7.925808E-3
8.965000E-8	7.937799E-3
8.970000E-8	7.942938E-3
8.975000E-8	7.939512E-3
8.980000E-8	7.944651E-3
8.985000E-8	7.958354E-3
8.990000E-8	7.973771E-3
8.995000E-8	8.011456E-3
9.000000E-8	8.086825E-3
9.005000E-8	8.193028E-3
9.010000E-8	8.331777E-3
9.015000E-8	8.484229E-3
9.020000E-8	8.616126E-3
9.025000E-8	8.744598E-3
9.030000E-8	8.929596E-3
9.035000E-8	9.111168E-3
9.040000E-8	9.208807E-3
9.045000E-8	9.251630E-3
9.050000E-8	9.304732E-3
9.055000E-8	9.316722E-3
9.060000E-8	9.236214E-3
9.065000E-8	9.112881E-3
9.070000E-8	8.951864E-3
9.075000E-8	8.713765E-3
9.080000E-8	8.439693E-3
9.085000E-8	8.215297E-3
9.090000E-8	8.044002E-3
9.095000E-8	7.882985E-3
9.100000E-8	7.773357E-3
9.105000E-8	7.742524E-3
9.110000E-8	7.769931E-3
9.115000E-8	7.819607E-3
9.120000E-8	7.894977E-3
9.125000E-8	7.997753E-3
9.130000E-8	8.103956E-3
9.135000E-8	8.186177E-3
9.140000E-8	8.246130E-3
9.145000E-8	8.280389E-3
9.150000E-8	8.264972E-3
9.155000E-8	8.218722E-3
9.160000E-8	8.160482E-3
9.165000E-8	8.112519E-3
9.170000E-8	8.085112E-3
9.175000E-8	8.078260E-3
9.180000E-8	8.098816E-3
9.185000E-8	8.148491E-3
9.190000E-8	8.217009E-3
9.195000E-8	8.294092E-3
9.200000E-8	8.355758E-3
9.205000E-8	8.403720E-3
9.210000E-8	8.422563E-3
9.215000E-8	8.412285E-3
9.220000E-8	8.352332E-3
9.225000E-8	8.258120E-3
9.230000E-8	8.153630E-3
9.235000E-8	8.050853E-3
9.240000E-8	7.965206E-3
9.245000E-8	7.910392E-3
9.250000E-8	7.882985E-3
9.255000E-8	7.881272E-3
9.260000E-8	7.906967E-3
9.265000E-8	7.980624E-3
9.270000E-8	8.074836E-3
9.275000E-8	8.175900E-3
9.280000E-8	8.287241E-3
9.285000E-8	8.386592E-3
9.290000E-8	8.449971E-3
9.295000E-8	8.489369E-3
9.300000E-8	8.511637E-3
9.305000E-8	8.503072E-3
9.310000E-8	8.455109E-3
9.315000E-8	8.396869E-3
9.320000E-8	8.354045E-3
9.325000E-8	8.312934E-3
9.330000E-8	8.244416E-3
9.335000E-8	8.145065E-3
9.340000E-8	8.037150E-3
9.345000E-8	7.942938E-3
9.350000E-8	7.867568E-3
9.355000E-8	7.792199E-3
9.360000E-8	7.720255E-3
9.365000E-8	7.660302E-3
9.370000E-8	7.619191E-3
9.375000E-8	7.581507E-3
9.380000E-8	7.559238E-3
9.385000E-8	7.590071E-3
9.390000E-8	7.675719E-3
9.395000E-8	7.781921E-3
9.400000E-8	7.903540E-3
9.405000E-8	8.049141E-3
9.410000E-8	8.206732E-3
9.415000E-8	8.352332E-3
9.420000E-8	8.492794E-3
9.425000E-8	8.595570E-3
9.430000E-8	8.617839E-3
9.435000E-8	8.585293E-3
9.440000E-8	8.554460E-3
9.445000E-8	8.501358E-3
9.450000E-8	8.410572E-3
9.455000E-8	8.312934E-3
9.460000E-8	8.247842E-3
9.465000E-8	8.196454E-3
9.470000E-8	8.165621E-3
9.475000E-8	8.177612E-3
9.480000E-8	8.215297E-3
9.485000E-8	8.271825E-3
9.490000E-8	8.357472E-3
9.495000E-8	8.461962E-3
9.500000E-8	8.535619E-3
9.505000E-8	8.578443E-3
9.510000E-8	8.610988E-3
9.515000E-8	8.640108E-3
9.520000E-8	8.626405E-3
9.525000E-8	8.569877E-3
9.530000E-8	8.487656E-3
9.535000E-8	8.386592E-3
9.540000E-8	8.264972E-3
9.545000E-8	8.151918E-3
9.550000E-8	8.045715E-3
9.555000E-8	7.939513E-3
9.560000E-8	7.848727E-3
9.565000E-8	7.792199E-3
9.570000E-8	7.761366E-3
9.575000E-8	7.751089E-3
9.580000E-8	7.776783E-3
9.585000E-8	7.817894E-3
9.590000E-8	7.852152E-3
9.595000E-8	7.917244E-3
9.600000E-8	8.021734E-3
9.605000E-8	8.117659E-3
9.610000E-8	8.186177E-3
9.615000E-8	8.268398E-3
9.620000E-8	8.376314E-3
9.625000E-8	8.496220E-3
9.630000E-8	8.593858E-3
9.635000E-8	8.657237E-3
9.640000E-8	8.689783E-3
9.645000E-8	8.681218E-3
9.650000E-8	8.641821E-3
9.655000E-8	8.545896E-3
9.660000E-8	8.390018E-3
9.665000E-8	8.206732E-3
9.670000E-8	8.032012E-3
9.675000E-8	7.855578E-3
9.680000E-8	7.670580E-3
9.685000E-8	7.511276E-3
9.690000E-8	7.413638E-3
9.695000E-8	7.369101E-3
9.700000E-8	7.360536E-3
9.705000E-8	7.386230E-3
9.710000E-8	7.454748E-3
9.715000E-8	7.545534E-3
9.720000E-8	7.620904E-3
9.725000E-8	7.665441E-3
9.730000E-8	7.687709E-3
9.735000E-8	7.675718E-3
9.740000E-8	7.614052E-3
9.745000E-8	7.550673E-3
9.750000E-8	7.514702E-3
9.755000E-8	7.480443E-3
9.760000E-8	7.471878E-3
9.765000E-8	7.538683E-3
9.770000E-8	7.662015E-3
9.775000E-8	7.780209E-3
9.780000E-8	7.908679E-3
9.785000E-8	8.085113E-3
9.790000E-8	8.275250E-3
9.795000E-8	8.431128E-3
9.800000E-8	8.544182E-3
9.805000E-8	8.578441E-3
9.810000E-8	8.528766E-3
9.815000E-8	8.388304E-3
9.820000E-8	8.187889E-3
9.825000E-8	7.966919E-3
9.830000E-8	7.763079E-3
9.835000E-8	7.586645E-3
9.840000E-8	7.439332E-3
9.845000E-8	7.351972E-3
9.850000E-8	7.327990E-3
9.855000E-8	7.339981E-3
9.860000E-8	7.403360E-3
9.865000E-8	7.552386E-3
9.870000E-8	7.747662E-3
9.875000E-8	7.937799E-3
9.880000E-8	8.127936E-3
9.885000E-8	8.316360E-3
9.890000E-8	8.456822E-3
9.895000E-8	8.525340E-3
9.900000E-8	8.552747E-3
9.905000E-8	8.566450E-3
9.910000E-8	8.559599E-3
9.915000E-8	8.513349E-3
9.920000E-8	8.429415E-3
9.925000E-8	8.340341E-3
9.930000E-8	8.258120E-3
9.935000E-8	8.133074E-3
9.940000E-8	7.999464E-3
9.945000E-8	7.915530E-3
9.950000E-8	7.852151E-3
9.955000E-8	7.768217E-3
9.960000E-8	7.715115E-3
9.965000E-8	7.735671E-3
9.970000E-8	7.771643E-3
9.975000E-8	7.811041E-3
9.980000E-8	7.927522E-3
9.985000E-8	8.107381E-3
9.990000E-8	8.254695E-3
9.995000E-8	8.335204E-3
1.000000E-7	8.393444E-3
1.000500E-7	8.444832E-3
1.001000E-7	8.465388E-3
1.001500E-7	8.458536E-3
1.002000E-7	8.422564E-3
1.002500E-7	8.362611E-3
1.003000E-7	8.261547E-3
1.003500E-7	8.136502E-3
1.004000E-7	8.021734E-3
1.004500E-7	7.930948E-3
1.005000E-7	7.852153E-3
1.005500E-7	7.805903E-3
1.006000E-7	7.843588E-3
1.006500E-7	7.915531E-3
1.007000E-7	7.956642E-3
1.007500E-7	7.985762E-3
1.008000E-7	8.044002E-3
1.008500E-7	8.119371E-3
1.009000E-7	8.172472E-3
1.009500E-7	8.196453E-3
1.010000E-7	8.193028E-3
1.010500E-7	8.184463E-3
1.011000E-7	8.184463E-3
1.011500E-7	8.155343E-3
1.012000E-7	8.088538E-3
1.012500E-7	8.055992E-3
1.013000E-7	8.067983E-3
1.013500E-7	8.100529E-3
1.014000E-7	8.143353E-3
1.014500E-7	8.199880E-3
1.015000E-7	8.242704E-3
1.015500E-7	8.240991E-3
1.016000E-7	8.222149E-3
1.016500E-7	8.184464E-3
1.017000E-7	8.124511E-3
1.017500E-7	8.038863E-3
1.018000E-7	7.937799E-3
1.018500E-7	7.843587E-3
1.019000E-7	7.775069E-3
1.019500E-7	7.723680E-3
1.020000E-7	7.682570E-3
1.020500E-7	7.685995E-3
1.021000E-7	7.739097E-3
1.021500E-7	7.809328E-3
1.022000E-7	7.884698E-3
1.022500E-7	7.984049E-3
1.023000E-7	8.067983E-3
1.023500E-7	8.134788E-3
1.024000E-7	8.235852E-3
1.024500E-7	8.340342E-3
1.025000E-7	8.396869E-3
1.025500E-7	8.417425E-3
1.026000E-7	8.437980E-3
1.026500E-7	8.444832E-3
1.027000E-7	8.432841E-3
1.027500E-7	8.402009E-3
1.028000E-7	8.345481E-3
1.028500E-7	8.280389E-3
1.029000E-7	8.230714E-3
1.029500E-7	8.186177E-3
1.030000E-7	8.112521E-3
1.030500E-7	8.057706E-3
1.031000E-7	8.057706E-3
1.031500E-7	8.100530E-3
1.032000E-7	8.158770E-3
1.032500E-7	8.227288E-3
1.033000E-7	8.285528E-3
1.033500E-7	8.324926E-3
1.034000E-7	8.360898E-3
1.034500E-7	8.396870E-3
1.035000E-7	8.443119E-3
1.035500E-7	8.494508E-3
1.036000E-7	8.533906E-3
1.036500E-7	8.537331E-3
1.037000E-7	8.525341E-3
1.037500E-7	8.509924E-3
1.038000E-7	8.453396E-3
1.038500E-7	8.359184E-3
1.039000E-7	8.278675E-3
1.039500E-7	8.244416E-3
1.040000E-7	8.220435E-3
1.040500E-7	8.174186E-3
1.041000E-7	8.126223E-3
1.041500E-7	8.091965E-3
1.042000E-7	8.074835E-3
1.042500E-7	8.090252E-3
1.043000E-7	8.167335E-3
1.043500E-7	8.292380E-3
1.044000E-7	8.424277E-3
1.044500E-7	8.549322E-3
1.045000E-7	8.662376E-3
1.045500E-7	8.765153E-3
1.046000E-7	8.843948E-3
1.046500E-7	8.881633E-3
1.047000E-7	8.890198E-3
1.047500E-7	8.864504E-3
1.048000E-7	8.783996E-3
1.048500E-7	8.634969E-3
1.049000E-7	8.441407E-3
1.049500E-7	8.252983E-3
1.050000E-7	8.100530E-3
1.050500E-7	7.977198E-3
1.051000E-7	7.894977E-3
1.051500E-7	7.869283E-3
1.052000E-7	7.896690E-3
1.052500E-7	7.942939E-3
1.053000E-7	8.033725E-3
1.053500E-7	8.165622E-3
1.054000E-7	8.273538E-3
1.054500E-7	8.350620E-3
1.055000E-7	8.455110E-3
1.055500E-7	8.540757E-3
1.056000E-7	8.552747E-3
1.056500E-7	8.539044E-3
1.057000E-7	8.525340E-3
1.057500E-7	8.461961E-3
1.058000E-7	8.374601E-3
1.058500E-7	8.307796E-3
1.059000E-7	8.244417E-3
1.059500E-7	8.157057E-3
1.060000E-7	8.081687E-3
1.060500E-7	8.004604E-3
1.061000E-7	7.910392E-3
1.061500E-7	7.809329E-3
1.062000E-7	7.689422E-3
1.062500E-7	7.540396E-3
1.063000E-7	7.434193E-3
1.063500E-7	7.372526E-3
1.064000E-7	7.314286E-3
1.064500E-7	7.285166E-3
1.065000E-7	7.345119E-3
1.065500E-7	7.466738E-3
1.066000E-7	7.608913E-3
1.066500E-7	7.793911E-3
1.067000E-7	8.011455E-3
1.067500E-7	8.199880E-3
1.068000E-7	8.345480E-3
1.068500E-7	8.425989E-3
1.069000E-7	8.431128E-3
1.069500E-7	8.386591E-3
1.070000E-7	8.294092E-3
1.070500E-7	8.158769E-3
1.071000E-7	8.013169E-3
1.071500E-7	7.869281E-3
1.072000E-7	7.691135E-3
1.072500E-7	7.507850E-3
1.073000E-7	7.408499E-3
1.073500E-7	7.381092E-3
1.074000E-7	7.370814E-3
1.074500E-7	7.423916E-3
1.075000E-7	7.545535E-3
1.075500E-7	7.672293E-3
1.076000E-7	7.780209E-3
1.076500E-7	7.910392E-3
1.077000E-7	8.028586E-3
1.077500E-7	8.127936E-3
1.078000E-7	8.266685E-3
1.078500E-7	8.437980E-3
1.079000E-7	8.580154E-3
1.079500E-7	8.722329E-3
1.080000E-7	8.888485E-3
1.080500E-7	9.022095E-3
1.081000E-7	9.112881E-3
1.081500E-7	9.200242E-3
1.082000E-7	9.253343E-3
1.082500E-7	9.227649E-3
1.083000E-7	9.177974E-3
1.083500E-7	9.138576E-3
1.084000E-7	9.058068E-3
1.084500E-7	8.941587E-3
1.085000E-7	8.823394E-3
1.085500E-7	8.700062E-3
1.086000E-7	8.556174E-3
1.086500E-7	8.425990E-3
1.087000E-7	8.314648E-3
1.087500E-7	8.215297E-3
1.088000E-7	8.151918E-3
1.088500E-7	8.134788E-3
1.089000E-7	8.134788E-3
1.089500E-7	8.138214E-3
1.090000E-7	8.127936E-3
1.090500E-7	8.102242E-3
1.091000E-7	8.090251E-3
1.091500E-7	8.088538E-3
1.092000E-7	8.049140E-3
1.092500E-7	7.980622E-3
1.093000E-7	7.960067E-3
1.093500E-7	7.973770E-3
1.094000E-7	7.960067E-3
1.094500E-7	7.925808E-3
1.095000E-7	7.915530E-3
1.095500E-7	7.913817E-3
1.096000E-7	7.898401E-3
1.096500E-7	7.905253E-3
1.097000E-7	7.965206E-3
1.097500E-7	8.054279E-3
1.098000E-7	8.141640E-3
1.098500E-7	8.230713E-3
1.099000E-7	8.299231E-3
1.099500E-7	8.318073E-3
1.100000E-7	8.288953E-3
1.100500E-7	8.252982E-3
1.101000E-7	8.213584E-3
1.101500E-7	8.136502E-3
1.102000E-7	8.030299E-3
1.102500E-7	7.942939E-3
1.103000E-7	7.891550E-3
1.103500E-7	7.841875E-3
1.104000E-7	7.797338E-3
1.104500E-7	7.797338E-3
1.105000E-7	7.819606E-3
1.105500E-7	7.836736E-3
1.106000E-7	7.867568E-3
1.106500E-7	7.946364E-3
1.107000E-7	8.059418E-3
1.107500E-7	8.179324E-3
1.108000E-7	8.297518E-3
1.108500E-7	8.434554E-3
1.109000E-7	8.576728E-3
1.109500E-7	8.662376E-3
1.110000E-7	8.676080E-3
1.110500E-7	8.643534E-3
1.111000E-7	8.559600E-3
1.111500E-7	8.429416E-3
1.112000E-7	8.282103E-3
1.112500E-7	8.148493E-3
1.113000E-7	8.023448E-3
1.113500E-7	7.903541E-3
1.114000E-7	7.785348E-3
1.114500E-7	7.703126E-3
1.115000E-7	7.679145E-3
1.115500E-7	7.703126E-3
1.116000E-7	7.728820E-3
1.116500E-7	7.778496E-3
1.117000E-7	7.857291E-3
1.117500E-7	7.910393E-3
1.118000E-7	7.906967E-3
1.118500E-7	7.908680E-3
1.119000E-7	7.949791E-3
1.119500E-7	7.975485E-3
1.120000E-7	7.996041E-3
1.120500E-7	8.035439E-3
1.121000E-7	8.069697E-3
1.121500E-7	8.066271E-3
1.122000E-7	8.076549E-3
1.122500E-7	8.136502E-3
1.123000E-7	8.213584E-3
1.123500E-7	8.285528E-3
1.124000E-7	8.359185E-3
1.124500E-7	8.413999E-3
1.125000E-7	8.431128E-3
1.125500E-7	8.422564E-3
1.126000E-7	8.376314E-3
1.126500E-7	8.306083E-3
1.127000E-7	8.230714E-3
1.127500E-7	8.155344E-3
1.128000E-7	8.074835E-3
1.128500E-7	8.001178E-3
1.129000E-7	7.948077E-3
1.129500E-7	7.927522E-3
1.130000E-7	7.927522E-3
1.130500E-7	7.920670E-3
1.131000E-7	7.913818E-3
1.131500E-7	7.905253E-3
1.132000E-7	7.908679E-3
1.132500E-7	7.934373E-3
1.133000E-7	7.987475E-3
1.133500E-7	8.038863E-3
1.134000E-7	8.074835E-3
1.134500E-7	8.136501E-3
1.135000E-7	8.206732E-3
1.135500E-7	8.227287E-3
1.136000E-7	8.201593E-3
1.136500E-7	8.189603E-3
1.137000E-7	8.191316E-3
1.137500E-7	8.170760E-3
1.138000E-7	8.129650E-3
1.138500E-7	8.105668E-3
1.139000E-7	8.093678E-3
1.139500E-7	8.097104E-3
1.140000E-7	8.109094E-3
1.140500E-7	8.097104E-3
1.141000E-7	8.055993E-3
1.141500E-7	7.987475E-3
1.142000E-7	7.881272E-3
1.142500E-7	7.752801E-3
1.143000E-7	7.638034E-3
1.143500E-7	7.535257E-3
1.144000E-7	7.410212E-3
1.144500E-7	7.297157E-3
1.145000E-7	7.244056E-3
1.145500E-7	7.228639E-3
1.146000E-7	7.235491E-3
1.146500E-7	7.317712E-3
1.147000E-7	7.489007E-3
1.147500E-7	7.704838E-3
1.148000E-7	7.906966E-3
1.148500E-7	8.079974E-3
1.149000E-7	8.222148E-3
1.149500E-7	8.306083E-3
1.150000E-7	8.319786E-3
1.150500E-7	8.285527E-3
1.151000E-7	8.244417E-3
1.151500E-7	8.189603E-3
1.152000E-7	8.102242E-3
1.152500E-7	8.030299E-3
1.153000E-7	8.018308E-3
1.153500E-7	8.047428E-3
1.154000E-7	8.107381E-3
1.154500E-7	8.218723E-3
1.155000E-7	8.371175E-3
1.155500E-7	8.518488E-3
1.156000E-7	8.645246E-3
1.156500E-7	8.765153E-3
1.157000E-7	8.845661E-3
1.157500E-7	8.862791E-3
1.158000E-7	8.854226E-3
1.158500E-7	8.842235E-3
1.159000E-7	8.783995E-3
1.159500E-7	8.670941E-3
1.160000E-7	8.530479E-3
1.160500E-7	8.388304E-3
1.161000E-7	8.266685E-3
1.161500E-7	8.169047E-3
1.162000E-7	8.078261E-3
1.162500E-7	8.013169E-3
1.163000E-7	8.013169E-3
1.163500E-7	8.049141E-3
1.164000E-7	8.067984E-3
1.164500E-7	8.086826E-3
1.165000E-7	8.126224E-3
1.165500E-7	8.177613E-3
1.166000E-7	8.242705E-3
1.166500E-7	8.307797E-3
1.167000E-7	8.360898E-3
1.167500E-7	8.391731E-3
1.168000E-7	8.388306E-3
1.168500E-7	8.326640E-3
1.169000E-7	8.199882E-3
1.169500E-7	8.037152E-3
1.170000E-7	7.835024E-3
1.170500E-7	7.598637E-3
1.171000E-7	7.386231E-3
1.171500E-7	7.221788E-3
1.172000E-7	7.108734E-3
1.172500E-7	7.052206E-3
1.173000E-7	7.041929E-3
1.173500E-7	7.065910E-3
1.174000E-7	7.113872E-3
1.174500E-7	7.194381E-3
1.175000E-7	7.312574E-3
1.175500E-7	7.468452E-3
1.176000E-7	7.629469E-3
1.176500E-7	7.769931E-3
1.177000E-7	7.913818E-3
1.177500E-7	8.074835E-3
1.178000E-7	8.208445E-3
1.178500E-7	8.311222E-3
1.179000E-7	8.408860E-3
1.179500E-7	8.479091E-3
1.180000E-7	8.496220E-3
1.180500E-7	8.465387E-3
1.181000E-7	8.405434E-3
1.181500E-7	8.328351E-3
1.182000E-7	8.258120E-3
1.182500E-7	8.198167E-3
1.183000E-7	8.114233E-3
1.183500E-7	8.018308E-3
1.184000E-7	7.939512E-3
1.184500E-7	7.903541E-3
1.185000E-7	7.903541E-3
1.185500E-7	7.927522E-3
1.186000E-7	7.954929E-3
1.186500E-7	8.004604E-3
1.187000E-7	8.071409E-3
1.187500E-7	8.097104E-3
1.188000E-7	8.074835E-3
1.188500E-7	8.050854E-3
1.189000E-7	8.004605E-3
1.189500E-7	7.905254E-3
1.190000E-7	7.797338E-3
1.190500E-7	7.721969E-3
1.191000E-7	7.662016E-3
1.191500E-7	7.607202E-3
1.192000E-7	7.581508E-3
1.192500E-7	7.624331E-3
1.193000E-7	7.706553E-3
1.193500E-7	7.787061E-3
1.194000E-7	7.865856E-3
1.194500E-7	7.966920E-3
1.195000E-7	8.066271E-3
1.195500E-7	8.090252E-3
1.196000E-7	8.040576E-3
1.196500E-7	7.975484E-3
1.197000E-7	7.915531E-3
1.197500E-7	7.826458E-3
1.198000E-7	7.711691E-3
1.198500E-7	7.603775E-3
1.199000E-7	7.518128E-3
1.199500E-7	7.475304E-3
1.200000E-7	7.485582E-3
1.200500E-7	7.535257E-3
1.201000E-7	7.638034E-3
1.201500E-7	7.792199E-3
1.202000E-7	7.954929E-3
1.202500E-7	8.105668E-3
1.203000E-7	8.249556E-3
1.203500E-7	8.366036E-3
1.204000E-7	8.400295E-3
1.204500E-7	8.386591E-3
1.205000E-7	8.367749E-3
1.205500E-7	8.318074E-3
1.206000E-7	8.218723E-3
1.206500E-7	8.117659E-3
1.207000E-7	8.021734E-3
1.207500E-7	7.888124E-3
1.208000E-7	7.766505E-3
1.208500E-7	7.713404E-3
1.209000E-7	7.718543E-3
1.209500E-7	7.728820E-3
1.210000E-7	7.763079E-3
1.210500E-7	7.833310E-3
1.211000E-7	7.915531E-3
1.211500E-7	7.973772E-3
1.212000E-7	8.011457E-3
1.212500E-7	8.049141E-3
1.213000E-7	8.083401E-3
1.213500E-7	8.081688E-3
1.214000E-7	8.033725E-3
1.214500E-7	7.954930E-3
1.215000E-7	7.857292E-3
1.215500E-7	7.732247E-3
1.216000E-7	7.574656E-3
1.216500E-7	7.422203E-3
1.217000E-7	7.300584E-3
1.217500E-7	7.201233E-3
1.218000E-7	7.136141E-3
1.218500E-7	7.132715E-3
1.219000E-7	7.178964E-3
1.219500E-7	7.249195E-3
1.220000E-7	7.363962E-3
1.220500E-7	7.540396E-3
1.221000E-7	7.739098E-3
1.221500E-7	7.913818E-3
1.222000E-7	8.076548E-3
1.222500E-7	8.240991E-3
1.223000E-7	8.364324E-3
1.223500E-7	8.407148E-3
1.224000E-7	8.366037E-3
1.224500E-7	8.299232E-3
1.225000E-7	8.237567E-3
1.225500E-7	8.163910E-3
1.226000E-7	8.090253E-3
1.226500E-7	8.076550E-3
1.227000E-7	8.143355E-3
1.227500E-7	8.258122E-3
1.228000E-7	8.408861E-3
1.228500E-7	8.604137E-3
1.229000E-7	8.780570E-3
1.229500E-7	8.888486E-3
1.230000E-7	8.941587E-3
1.230500E-7	8.965568E-3
1.231000E-7	8.922745E-3
1.231500E-7	8.778857E-3
1.232000E-7	8.566452E-3
1.232500E-7	8.318074E-3
1.233000E-7	8.059419E-3
1.233500E-7	7.809329E-3
1.234000E-7	7.612340E-3
1.234500E-7	7.477017E-3
1.235000E-7	7.415351E-3
1.235500E-7	7.444471E-3
1.236000E-7	7.576368E-3
1.236500E-7	7.749376E-3
1.237000E-7	7.922383E-3
1.237500E-7	8.095391E-3
1.238000E-7	8.256408E-3
1.238500E-7	8.376314E-3
1.239000E-7	8.451684E-3
1.239500E-7	8.508211E-3
1.240000E-7	8.537331E-3
1.240500E-7	8.535618E-3
1.241000E-7	8.535618E-3
1.241500E-7	8.516775E-3
1.242000E-7	8.487655E-3
1.242500E-7	8.482516E-3
1.243000E-7	8.506497E-3
1.243500E-7	8.525340E-3
1.244000E-7	8.545895E-3
1.244500E-7	8.590432E-3
1.245000E-7	8.629830E-3
1.245500E-7	8.641821E-3
1.246000E-7	8.652099E-3
1.246500E-7	8.633257E-3
1.247000E-7	8.547610E-3
1.247500E-7	8.425990E-3
1.248000E-7	8.282103E-3
1.248500E-7	8.129651E-3
1.249000E-7	7.987476E-3
1.249500E-7	7.881273E-3
1.250000E-7	7.809329E-3
1.250500E-7	7.768218E-3
1.251000E-7	7.785347E-3
1.251500E-7	7.836736E-3
1.252000E-7	7.896689E-3
1.252500E-7	7.990901E-3
1.253000E-7	8.109094E-3
1.253500E-7	8.213584E-3
1.254000E-7	8.270111E-3
1.254500E-7	8.299231E-3
1.255000E-7	8.280389E-3
1.255500E-7	8.194742E-3
1.256000E-7	8.079974E-3
1.256500E-7	7.963494E-3
1.257000E-7	7.836736E-3
1.257500E-7	7.709978E-3
1.258000E-7	7.617479E-3
1.258500E-7	7.571229E-3
1.259000E-7	7.579794E-3
1.259500E-7	7.660302E-3
1.260000E-7	7.799051E-3
1.260500E-7	7.949791E-3
1.261000E-7	8.098817E-3
1.261500E-7	8.232427E-3
1.262000E-7	8.355759E-3
1.262500E-7	8.453397E-3
1.263000E-7	8.504786E-3
1.263500E-7	8.504786E-3
1.264000E-7	8.451684E-3
1.264500E-7	8.338630E-3
1.265000E-7	8.193029E-3
1.265500E-7	8.038864E-3
1.266000E-7	7.896689E-3
1.266500E-7	7.795625E-3
1.267000E-7	7.764792E-3
1.267500E-7	7.781921E-3
1.268000E-7	7.809328E-3
1.268500E-7	7.843587E-3
1.269000E-7	7.898401E-3
1.269500E-7	7.946364E-3
1.270000E-7	7.968632E-3
1.270500E-7	7.954929E-3
1.271000E-7	7.908679E-3
1.271500E-7	7.833309E-3
1.272000E-7	7.749375E-3
1.272500E-7	7.627756E-3
1.273000E-7	7.456461E-3
1.273500E-7	7.257760E-3
1.274000E-7	7.071049E-3
1.274500E-7	6.922022E-3
1.275000E-7	6.803829E-3
1.275500E-7	6.738737E-3
1.276000E-7	6.721608E-3
1.276500E-7	6.733599E-3
1.277000E-7	6.788413E-3
1.277500E-7	6.889477E-3
1.278000E-7	7.014522E-3
1.278500E-7	7.124151E-3
1.279000E-7	7.254335E-3
1.279500E-7	7.413639E-3
1.280000E-7	7.562665E-3
1.280500E-7	7.675719E-3
1.281000E-7	7.775070E-3
1.281500E-7	7.869282E-3
1.282000E-7	7.951503E-3
1.282500E-7	8.032012E-3
1.283000E-7	8.124511E-3
1.283500E-7	8.213584E-3
1.284000E-7	8.287241E-3
1.284500E-7	8.360898E-3
1.285000E-7	8.449971E-3
1.285500E-7	8.503072E-3
1.286000E-7	8.475665E-3
1.286500E-7	8.405434E-3
1.287000E-7	8.333490E-3
1.287500E-7	8.215297E-3
1.288000E-7	8.038863E-3
1.288500E-7	7.874420E-3
1.289000E-7	7.733958E-3
1.289500E-7	7.590071E-3
1.290000E-7	7.471877E-3
1.290500E-7	7.398221E-3
1.291000E-7	7.350258E-3
1.291500E-7	7.357110E-3
1.292000E-7	7.430767E-3
1.292500E-7	7.545534E-3
1.293000E-7	7.679144E-3
1.293500E-7	7.840161E-3
1.294000E-7	7.980623E-3
1.294500E-7	8.078261E-3
1.295000E-7	8.155343E-3
1.295500E-7	8.187889E-3
1.296000E-7	8.177611E-3
1.296500E-7	8.160482E-3
1.297000E-7	8.158769E-3
1.297500E-7	8.148491E-3
1.298000E-7	8.126223E-3
1.298500E-7	8.115945E-3
1.299000E-7	8.122797E-3
1.299500E-7	8.136501E-3
1.300000E-7	8.145066E-3
1.300500E-7	8.163908E-3
1.301000E-7	8.203306E-3
1.301500E-7	8.232426E-3
1.302000E-7	8.229001E-3
1.302500E-7	8.222149E-3
1.303000E-7	8.227288E-3
1.303500E-7	8.210159E-3
1.304000E-7	8.169048E-3
1.304500E-7	8.131363E-3
1.305000E-7	8.090252E-3
1.305500E-7	8.042290E-3
1.306000E-7	8.018309E-3
1.306500E-7	7.994327E-3
1.307000E-7	7.956642E-3
1.307500E-7	7.939513E-3
1.308000E-7	7.972059E-3
1.308500E-7	8.026873E-3
1.309000E-7	8.110808E-3
1.309500E-7	8.232427E-3
1.310000E-7	8.366037E-3
1.310500E-7	8.494508E-3
1.311000E-7	8.624692E-3
1.311500E-7	8.720617E-3
1.312000E-7	8.758302E-3
1.312500E-7	8.799413E-3
1.313000E-7	8.837097E-3
1.313500E-7	8.799413E-3
1.314000E-7	8.701775E-3
1.314500E-7	8.595572E-3
1.315000E-7	8.453397E-3
1.315500E-7	8.270112E-3
1.316000E-7	8.141641E-3
1.316500E-7	8.081688E-3
1.317000E-7	8.044003E-3
1.317500E-7	8.045716E-3
1.318000E-7	8.107382E-3
1.318500E-7	8.160483E-3
1.319000E-7	8.203307E-3
1.319500E-7	8.287241E-3
1.320000E-7	8.364324E-3
1.320500E-7	8.403721E-3
1.321000E-7	8.449971E-3
1.321500E-7	8.479091E-3
1.322000E-7	8.415712E-3
1.322500E-7	8.302657E-3
1.323000E-7	8.208445E-3
1.323500E-7	8.069696E-3
1.324000E-7	7.900114E-3
1.324500E-7	7.781921E-3
1.325000E-7	7.716829E-3
1.325500E-7	7.665441E-3
1.326000E-7	7.646599E-3
1.326500E-7	7.691136E-3
1.327000E-7	7.769931E-3
1.327500E-7	7.841875E-3
1.328000E-7	7.891551E-3
1.328500E-7	7.939514E-3
1.329000E-7	7.997754E-3
1.329500E-7	8.020022E-3
1.330000E-7	7.984050E-3
1.330500E-7	7.958356E-3
1.331000E-7	7.973772E-3
1.331500E-7	7.982337E-3
1.332000E-7	7.984050E-3
1.332500E-7	8.021734E-3
1.333000E-7	8.086826E-3
1.333500E-7	8.139927E-3
1.334000E-7	8.182751E-3
1.334500E-7	8.203306E-3
1.335000E-7	8.201594E-3
1.335500E-7	8.169048E-3
1.336000E-7	8.095391E-3
1.336500E-7	7.985762E-3
1.337000E-7	7.881272E-3
1.337500E-7	7.776783E-3
1.338000E-7	7.660302E-3
1.338500E-7	7.581506E-3
1.339000E-7	7.555812E-3
1.339500E-7	7.518127E-3
1.340000E-7	7.494146E-3
1.340500E-7	7.530118E-3
1.341000E-7	7.602062E-3
1.341500E-7	7.679144E-3
1.342000E-7	7.769931E-3
1.342500E-7	7.876133E-3
1.343000E-7	7.982336E-3
1.343500E-7	8.105668E-3
1.344000E-7	8.217010E-3
1.344500E-7	8.278676E-3
1.345000E-7	8.345481E-3
1.345500E-7	8.432841E-3
1.346000E-7	8.485943E-3
1.346500E-7	8.499646E-3
1.347000E-7	8.530479E-3
1.347500E-7	8.528766E-3
1.348000E-7	8.460248E-3
1.348500E-7	8.395156E-3
1.349000E-7	8.354045E-3
1.349500E-7	8.254695E-3
1.350000E-7	8.121085E-3
1.350500E-7	8.040576E-3
1.351000E-7	7.990901E-3
1.351500E-7	7.936087E-3
1.352000E-7	7.900115E-3
1.352500E-7	7.906966E-3
1.353000E-7	7.944651E-3
1.353500E-7	8.018308E-3
1.354000E-7	8.112520E-3
1.354500E-7	8.213583E-3
1.355000E-7	8.323212E-3
1.355500E-7	8.424276E-3
1.356000E-7	8.499645E-3
1.356500E-7	8.576728E-3
1.357000E-7	8.655523E-3
1.357500E-7	8.705198E-3
1.358000E-7	8.753161E-3
1.358500E-7	8.828531E-3
1.359000E-7	8.855938E-3
1.359500E-7	8.818253E-3
1.360000E-7	8.746309E-3
1.360500E-7	8.655523E-3
1.361000E-7	8.518488E-3
1.361500E-7	8.345480E-3
1.362000E-7	8.158769E-3
1.362500E-7	7.973771E-3
1.363000E-7	7.824744E-3
1.363500E-7	7.713403E-3
1.364000E-7	7.612339E-3
1.364500E-7	7.548960E-3
1.365000E-7	7.548960E-3
1.365500E-7	7.552385E-3
1.366000E-7	7.571228E-3
1.366500E-7	7.646597E-3
1.367000E-7	7.703125E-3
1.367500E-7	7.689421E-3
1.368000E-7	7.674005E-3
1.368500E-7	7.670579E-3
1.369000E-7	7.598635E-3
1.369500E-7	7.502710E-3
1.370000E-7	7.463312E-3
1.370500E-7	7.487294E-3
1.371000E-7	7.548960E-3
1.371500E-7	7.682570E-3
1.372000E-7	7.882985E-3
1.372500E-7	8.122797E-3
1.373000E-7	8.422563E-3
1.373500E-7	8.756588E-3
1.374000E-7	9.051215E-3
1.374500E-7	9.270472E-3
1.375000E-7	9.405795E-3
1.375500E-7	9.422924E-3
1.376000E-7	9.309869E-3
1.376500E-7	9.100890E-3
1.377000E-7	8.816541E-3
1.377500E-7	8.467100E-3
1.378000E-7	8.097104E-3
1.378500E-7	7.766505E-3
1.379000E-7	7.480443E-3
1.379500E-7	7.281741E-3
1.380000E-7	7.194381E-3
1.380500E-7	7.204659E-3
1.381000E-7	7.302297E-3
1.381500E-7	7.468453E-3
1.382000E-7	7.646599E-3
1.382500E-7	7.824746E-3
1.383000E-7	8.002892E-3
1.383500E-7	8.117660E-3
1.384000E-7	8.145067E-3
1.384500E-7	8.153631E-3
1.385000E-7	8.155344E-3
1.385500E-7	8.088539E-3
1.386000E-7	7.987475E-3
1.386500E-7	7.898402E-3
1.387000E-7	7.802477E-3
1.387500E-7	7.694561E-3
1.388000E-7	7.617478E-3
1.388500E-7	7.569516E-3
1.389000E-7	7.559238E-3
1.389500E-7	7.617478E-3
1.390000E-7	7.708265E-3
1.390500E-7	7.792199E-3
1.391000E-7	7.908680E-3
1.391500E-7	8.078262E-3
1.392000E-7	8.232427E-3
1.392500E-7	8.366037E-3
1.393000E-7	8.520202E-3
1.393500E-7	8.653812E-3
1.394000E-7	8.736033E-3
1.394500E-7	8.783995E-3
1.395000E-7	8.828532E-3
1.395500E-7	8.826818E-3
1.396000E-7	8.756587E-3
1.396500E-7	8.633255E-3
1.397000E-7	8.485942E-3
1.397500E-7	8.335203E-3
1.398000E-7	8.172473E-3
1.398500E-7	8.026872E-3
1.399000E-7	7.936086E-3
1.399500E-7	7.888124E-3
1.400000E-7	7.850439E-3
1.400500E-7	7.857291E-3
1.401000E-7	7.915531E-3
1.401500E-7	7.973772E-3
1.402000E-7	7.999466E-3
1.402500E-7	8.009743E-3
1.403000E-7	8.009743E-3
1.403500E-7	8.001179E-3
1.404000E-7	7.996040E-3
1.404500E-7	7.997753E-3
1.405000E-7	7.982337E-3
1.405500E-7	7.934374E-3
1.406000E-7	7.881273E-3
1.406500E-7	7.900115E-3
1.407000E-7	7.994327E-3
1.407500E-7	8.103956E-3
1.408000E-7	8.211872E-3
1.408500E-7	8.360898E-3
1.409000E-7	8.528767E-3
1.409500E-7	8.643534E-3
1.410000E-7	8.684645E-3
1.410500E-7	8.688070E-3
1.411000E-7	8.653811E-3
1.411500E-7	8.587006E-3
1.412000E-7	8.503072E-3
1.412500E-7	8.381453E-3
1.413000E-7	8.246130E-3
1.413500E-7	8.134789E-3
1.414000E-7	8.071410E-3
1.414500E-7	8.037151E-3
1.415000E-7	8.047429E-3
1.415500E-7	8.126225E-3
1.416000E-7	8.247844E-3
1.416500E-7	8.371177E-3
1.417000E-7	8.496222E-3
1.417500E-7	8.602425E-3
1.418000E-7	8.643535E-3
1.418500E-7	8.629832E-3
1.419000E-7	8.597285E-3
1.419500E-7	8.540758E-3
1.420000E-7	8.434555E-3
1.420500E-7	8.314648E-3
1.421000E-7	8.210158E-3
1.421500E-7	8.103956E-3
1.422000E-7	7.990901E-3
1.422500E-7	7.930948E-3
1.423000E-7	7.920670E-3
1.423500E-7	7.932660E-3
1.424000E-7	7.954929E-3
1.424500E-7	8.002891E-3
1.425000E-7	8.067983E-3
1.425500E-7	8.143353E-3
1.426000E-7	8.184464E-3
1.426500E-7	8.186177E-3
1.427000E-7	8.193028E-3
1.427500E-7	8.208445E-3
1.428000E-7	8.210158E-3
1.428500E-7	8.206732E-3
1.429000E-7	8.211871E-3
1.429500E-7	8.191315E-3
1.430000E-7	8.155343E-3
1.430500E-7	8.139927E-3
1.431000E-7	8.121085E-3
1.431500E-7	8.078261E-3
1.432000E-7	8.064557E-3
1.432500E-7	8.079974E-3
1.433000E-7	8.074835E-3
1.433500E-7	8.074835E-3
1.434000E-7	8.095391E-3
1.434500E-7	8.091965E-3
1.435000E-7	8.059419E-3
1.435500E-7	8.061132E-3
1.436000E-7	8.088539E-3
1.436500E-7	8.073122E-3
1.437000E-7	8.050854E-3
1.437500E-7	8.061131E-3
1.438000E-7	8.076548E-3
1.438500E-7	8.107381E-3
1.439000E-7	8.189602E-3
1.439500E-7	8.316361E-3
1.440000E-7	8.458535E-3
1.440500E-7	8.640108E-3
1.441000E-7	8.819968E-3
1.441500E-7	8.941587E-3
1.442000E-7	9.027234E-3
1.442500E-7	9.100891E-3
1.443000E-7	9.111169E-3
1.443500E-7	9.027234E-3
1.444000E-7	8.900476E-3
1.444500E-7	8.739459E-3
1.445000E-7	8.525341E-3
1.445500E-7	8.280389E-3
1.446000E-7	8.047428E-3
1.446500E-7	7.836736E-3
1.447000E-7	7.670580E-3
1.447500E-7	7.564378E-3
1.448000E-7	7.519841E-3
1.448500E-7	7.557526E-3
1.449000E-7	7.684284E-3
1.449500E-7	7.840163E-3
1.450000E-7	7.999467E-3
1.450500E-7	8.174187E-3
1.451000E-7	8.342056E-3
1.451500E-7	8.443120E-3
1.452000E-7	8.499647E-3
1.452500E-7	8.571590E-3
1.453000E-7	8.595571E-3
1.453500E-7	8.520202E-3
1.454000E-7	8.410573E-3
1.454500E-7	8.340342E-3
1.455000E-7	8.273537E-3
1.455500E-7	8.189603E-3
1.456000E-7	8.127936E-3
1.456500E-7	8.119372E-3
1.457000E-7	8.119372E-3
1.457500E-7	8.095390E-3
1.458000E-7	8.073122E-3
1.458500E-7	8.073122E-3
1.459000E-7	8.086825E-3
1.459500E-7	8.102242E-3
1.460000E-7	8.107381E-3
1.460500E-7	8.078261E-3
1.461000E-7	8.013169E-3
1.461500E-7	7.932660E-3
1.462000E-7	7.831597E-3
1.462500E-7	7.735672E-3
1.463000E-7	7.682570E-3
1.463500E-7	7.684284E-3
1.464000E-7	7.706552E-3
1.464500E-7	7.725395E-3
1.465000E-7	7.744237E-3
1.465500E-7	7.757941E-3
1.466000E-7	7.768218E-3
1.466500E-7	7.804190E-3
1.467000E-7	7.835023E-3
1.467500E-7	7.811042E-3
1.468000E-7	7.778495E-3
1.468500E-7	7.780208E-3
1.469000E-7	7.805903E-3
1.469500E-7	7.828171E-3
1.470000E-7	7.855578E-3
1.470500E-7	7.908680E-3
1.471000E-7	8.013169E-3
1.471500E-7	8.141641E-3
1.472000E-7	8.252982E-3
1.472500E-7	8.342055E-3
1.473000E-7	8.448258E-3
1.473500E-7	8.557887E-3
1.474000E-7	8.600710E-3
1.474500E-7	8.583581E-3
1.475000E-7	8.523627E-3
1.475500E-7	8.415711E-3
1.476000E-7	8.273537E-3
1.476500E-7	8.139927E-3
1.477000E-7	8.049140E-3
1.477500E-7	7.997752E-3
1.478000E-7	7.982335E-3
1.478500E-7	8.002891E-3
1.479000E-7	8.032011E-3
1.479500E-7	8.100529E-3
1.480000E-7	8.194742E-3
1.480500E-7	8.283815E-3
1.481000E-7	8.347194E-3
1.481500E-7	8.369463E-3
1.482000E-7	8.336917E-3
1.482500E-7	8.268399E-3
1.483000E-7	8.179326E-3
1.483500E-7	8.059420E-3
1.484000E-7	7.922384E-3
1.484500E-7	7.811042E-3
1.485000E-7	7.751089E-3
1.485500E-7	7.735673E-3
1.486000E-7	7.768219E-3
1.486500E-7	7.853866E-3
1.487000E-7	7.968634E-3
1.487500E-7	8.083401E-3
1.488000E-7	8.210159E-3
1.488500E-7	8.312935E-3
1.489000E-7	8.347194E-3
1.489500E-7	8.323213E-3
1.490000E-7	8.268398E-3
1.490500E-7	8.170760E-3
1.491000E-7	8.028585E-3
1.491500E-7	7.888123E-3
1.492000E-7	7.776782E-3
1.492500E-7	7.691134E-3
1.493000E-7	7.665440E-3
1.493500E-7	7.735671E-3
1.494000E-7	7.876133E-3
1.494500E-7	8.014882E-3
1.495000E-7	8.150205E-3
1.495500E-7	8.343768E-3
1.496000E-7	8.576729E-3
1.496500E-7	8.799412E-3
1.497000E-7	8.984411E-3
1.497500E-7	9.152280E-3
1.498000E-7	9.277325E-3
1.498500E-7	9.311584E-3
1.499000E-7	9.261908E-3
1.499500E-7	9.159131E-3
1.500000E-7	9.011818E-3
1.500500E-7	8.840523E-3
1.501000E-7	8.652099E-3
1.501500E-7	8.473952E-3
1.502000E-7	8.297519E-3
1.502500E-7	8.127937E-3
1.503000E-7	7.984049E-3
1.503500E-7	7.872707E-3
1.504000E-7	7.804189E-3
1.504500E-7	7.768217E-3
1.505000E-7	7.778495E-3
1.505500E-7	7.860716E-3
1.506000E-7	7.985761E-3
1.506500E-7	8.102242E-3
1.507000E-7	8.210157E-3
1.507500E-7	8.312934E-3
1.508000E-7	8.376314E-3
1.508500E-7	8.391730E-3
1.509000E-7	8.393444E-3
1.509500E-7	8.364324E-3
1.510000E-7	8.275251E-3
1.510500E-7	8.158770E-3
1.511000E-7	8.032012E-3
1.511500E-7	7.889838E-3
1.512000E-7	7.764793E-3
1.512500E-7	7.701413E-3
1.513000E-7	7.672293E-3
1.513500E-7	7.644886E-3
1.514000E-7	7.644886E-3
1.514500E-7	7.706552E-3
1.515000E-7	7.778495E-3
1.515500E-7	7.845300E-3
1.516000E-7	7.930948E-3
1.516500E-7	8.035437E-3
1.517000E-7	8.121085E-3
1.517500E-7	8.160483E-3
1.518000E-7	8.150205E-3
1.518500E-7	8.098817E-3
1.519000E-7	8.049142E-3
1.519500E-7	8.011457E-3
1.520000E-7	7.958355E-3
1.520500E-7	7.906967E-3
1.521000E-7	7.896690E-3
1.521500E-7	7.889838E-3
1.522000E-7	7.841875E-3
1.522500E-7	7.775070E-3
1.523000E-7	7.733960E-3
1.523500E-7	7.703127E-3
1.524000E-7	7.670580E-3
1.524500E-7	7.663729E-3
1.525000E-7	7.697988E-3
1.525500E-7	7.740811E-3
1.526000E-7	7.775070E-3
1.526500E-7	7.826459E-3
1.527000E-7	7.934374E-3
1.527500E-7	8.061132E-3
1.528000E-7	8.165622E-3
1.528500E-7	8.249556E-3
1.529000E-7	8.324926E-3
1.529500E-7	8.395157E-3
1.530000E-7	8.465388E-3
1.530500E-7	8.520202E-3
1.531000E-7	8.539044E-3
1.531500E-7	8.523628E-3
1.532000E-7	8.504785E-3
1.532500E-7	8.461962E-3
1.533000E-7	8.386592E-3
1.533500E-7	8.343768E-3
1.534000E-7	8.345481E-3
1.534500E-7	8.340342E-3
1.535000E-7	8.314648E-3
1.535500E-7	8.299232E-3
1.536000E-7	8.312935E-3
1.536500E-7	8.340342E-3
1.537000E-7	8.360897E-3
1.537500E-7	8.383166E-3
1.538000E-7	8.405434E-3
1.538500E-7	8.431128E-3
1.539000E-7	8.451684E-3
1.539500E-7	8.455110E-3
1.540000E-7	8.407147E-3
1.540500E-7	8.323213E-3
1.541000E-7	8.244417E-3
1.541500E-7	8.155344E-3
1.542000E-7	8.020021E-3
1.542500E-7	7.876134E-3
1.543000E-7	7.781922E-3
1.543500E-7	7.685996E-3
1.544000E-7	7.579794E-3
1.544500E-7	7.521554E-3
1.545000E-7	7.524979E-3
1.545500E-7	7.552387E-3
1.546000E-7	7.615766E-3
1.546500E-7	7.735672E-3
1.547000E-7	7.869282E-3
1.547500E-7	8.018308E-3
1.548000E-7	8.206732E-3
1.548500E-7	8.400295E-3
1.549000E-7	8.537331E-3
1.549500E-7	8.617840E-3
1.550000E-7	8.672654E-3
1.550500E-7	8.694922E-3
1.551000E-7	8.665802E-3
1.551500E-7	8.609275E-3
1.552000E-7	8.532192E-3
1.552500E-7	8.425990E-3
1.553000E-7	8.290667E-3
1.553500E-7	8.160483E-3
1.554000E-7	8.045715E-3
1.554500E-7	7.922382E-3
1.555000E-7	7.809328E-3
1.555500E-7	7.732245E-3
1.556000E-7	7.667153E-3
1.556500E-7	7.612338E-3
1.557000E-7	7.602061E-3
1.557500E-7	7.639746E-3
1.558000E-7	7.679144E-3
1.558500E-7	7.711690E-3
1.559000E-7	7.745949E-3
1.559500E-7	7.768218E-3
1.560000E-7	7.780209E-3
1.560500E-7	7.819607E-3
1.561000E-7	7.888125E-3
1.561500E-7	7.954930E-3
1.562000E-7	8.013170E-3
1.562500E-7	8.073123E-3
1.563000E-7	8.143353E-3
1.563500E-7	8.218723E-3
1.564000E-7	8.280389E-3
1.564500E-7	8.352333E-3
1.565000E-7	8.455109E-3
1.565500E-7	8.573303E-3
1.566000E-7	8.688071E-3
1.566500E-7	8.794274E-3
1.567000E-7	8.888486E-3
1.567500E-7	8.970708E-3
1.568000E-7	9.018670E-3
1.568500E-7	9.025522E-3
1.569000E-7	9.011819E-3
1.569500E-7	9.001541E-3
1.570000E-7	8.982699E-3
1.570500E-7	8.921032E-3
1.571000E-7	8.826820E-3
1.571500E-7	8.715478E-3
1.572000E-7	8.595572E-3
1.572500E-7	8.501359E-3
1.573000E-7	8.458536E-3
1.573500E-7	8.458536E-3
1.574000E-7	8.487656E-3
1.574500E-7	8.525341E-3
1.575000E-7	8.540758E-3
1.575500E-7	8.535619E-3
1.576000E-7	8.527054E-3
1.576500E-7	8.492796E-3
1.577000E-7	8.431130E-3
1.577500E-7	8.386593E-3
1.578000E-7	8.348908E-3
1.578500E-7	8.285529E-3
1.579000E-7	8.199881E-3
1.579500E-7	8.100530E-3
1.580000E-7	7.989188E-3
1.580500E-7	7.888124E-3
1.581000E-7	7.812755E-3
1.581500E-7	7.756227E-3
1.582000E-7	7.730533E-3
1.582500E-7	7.756227E-3
1.583000E-7	7.800764E-3
1.583500E-7	7.840162E-3
1.584000E-7	7.893263E-3
1.584500E-7	7.966920E-3
1.585000E-7	8.057706E-3
1.585500E-7	8.165622E-3
1.586000E-7	8.302658E-3
1.586500E-7	8.460249E-3
1.587000E-7	8.621266E-3
1.587500E-7	8.742885E-3
1.588000E-7	8.811403E-3
1.588500E-7	8.833671E-3
1.589000E-7	8.789135E-3
1.589500E-7	8.669228E-3
1.590000E-7	8.528767E-3
1.590500E-7	8.383166E-3
1.591000E-7	8.211872E-3
1.591500E-7	8.057707E-3
1.592000E-7	7.954930E-3
1.592500E-7	7.884699E-3
1.593000E-7	7.859005E-3
1.593500E-7	7.913819E-3
1.594000E-7	8.030299E-3
1.594500E-7	8.153631E-3
1.595000E-7	8.273537E-3
1.595500E-7	8.386592E-3
1.596000E-7	8.470526E-3
1.596500E-7	8.516775E-3
1.597000E-7	8.549321E-3
1.597500E-7	8.551034E-3
1.598000E-7	8.501358E-3
1.598500E-7	8.407146E-3
1.599000E-7	8.304370E-3
1.599500E-7	8.208445E-3
1.600000E-7	8.115946E-3
1.600500E-7	8.050854E-3
1.601000E-7	8.055993E-3
1.601500E-7	8.124511E-3
1.602000E-7	8.194742E-3
1.602500E-7	8.252982E-3
1.603000E-7	8.314648E-3
1.603500E-7	8.350620E-3
1.604000E-7	8.316361E-3
1.604500E-7	8.256408E-3
1.605000E-7	8.198167E-3
1.605500E-7	8.103955E-3
1.606000E-7	7.946364E-3
1.606500E-7	7.771643E-3
1.607000E-7	7.615765E-3
1.607500E-7	7.494146E-3
1.608000E-7	7.411925E-3
1.608500E-7	7.384518E-3
1.609000E-7	7.422203E-3
1.609500E-7	7.526693E-3
1.610000E-7	7.672294E-3
1.610500E-7	7.847015E-3
1.611000E-7	8.026874E-3
1.611500E-7	8.191317E-3
1.612000E-7	8.330066E-3
1.612500E-7	8.446546E-3
1.613000E-7	8.547610E-3
1.613500E-7	8.634970E-3
1.614000E-7	8.696636E-3
1.614500E-7	8.737746E-3
1.615000E-7	8.765153E-3
1.615500E-7	8.777144E-3
1.616000E-7	8.777144E-3
1.616500E-7	8.746311E-3
1.617000E-7	8.686358E-3
1.617500E-7	8.621266E-3
1.618000E-7	8.578442E-3
1.618500E-7	8.527053E-3
1.619000E-7	8.432841E-3
1.619500E-7	8.331778E-3
1.620000E-7	8.276963E-3
1.620500E-7	8.225575E-3
1.621000E-7	8.131363E-3
1.621500E-7	8.055994E-3
1.622000E-7	8.020022E-3
1.622500E-7	7.989189E-3
1.623000E-7	7.968634E-3
1.623500E-7	7.977199E-3
1.624000E-7	8.002893E-3
1.624500E-7	8.030300E-3
1.625000E-7	8.061133E-3
1.625500E-7	8.109095E-3
1.626000E-7	8.177613E-3
1.626500E-7	8.244418E-3
1.627000E-7	8.275251E-3
1.627500E-7	8.270112E-3
1.628000E-7	8.244417E-3
1.628500E-7	8.206733E-3
1.629000E-7	8.177613E-3
1.629500E-7	8.165622E-3
1.630000E-7	8.145067E-3
1.630500E-7	8.143354E-3
1.631000E-7	8.198169E-3
1.631500E-7	8.258122E-3
1.632000E-7	8.278677E-3
1.632500E-7	8.299233E-3
1.633000E-7	8.347195E-3
1.633500E-7	8.367750E-3
1.634000E-7	8.350621E-3
1.634500E-7	8.354047E-3
1.635000E-7	8.374602E-3
1.635500E-7	8.395157E-3
1.636000E-7	8.424277E-3
1.636500E-7	8.463675E-3
1.637000E-7	8.497934E-3
1.637500E-7	8.530479E-3
1.638000E-7	8.561312E-3
1.638500E-7	8.568164E-3
1.639000E-7	8.535618E-3
1.639500E-7	8.475665E-3
1.640000E-7	8.398582E-3
1.640500E-7	8.321500E-3
1.641000E-7	8.247843E-3
1.641500E-7	8.153631E-3
1.642000E-7	8.047428E-3
1.642500E-7	7.965207E-3
1.643000E-7	7.932661E-3
1.643500E-7	7.942938E-3
1.644000E-7	7.992614E-3
1.644500E-7	8.074835E-3
1.645000E-7	8.175899E-3
1.645500E-7	8.278676E-3
1.646000E-7	8.362610E-3
1.646500E-7	8.427702E-3
1.647000E-7	8.477378E-3
1.647500E-7	8.528767E-3
1.648000E-7	8.559600E-3
1.648500E-7	8.575016E-3
1.649000E-7	8.595572E-3
1.649500E-7	8.587007E-3
1.650000E-7	8.537332E-3
1.650500E-7	8.485943E-3
1.651000E-7	8.463674E-3
1.651500E-7	8.453396E-3
1.652000E-7	8.446544E-3
1.652500E-7	8.482516E-3
1.653000E-7	8.556173E-3
1.653500E-7	8.621265E-3
1.654000E-7	8.650385E-3
1.654500E-7	8.626403E-3
1.655000E-7	8.549321E-3
1.655500E-7	8.408859E-3
1.656000E-7	8.234139E-3
1.656500E-7	8.054279E-3
1.657000E-7	7.874420E-3
1.657500E-7	7.691135E-3
1.658000E-7	7.509562E-3
1.658500E-7	7.362249E-3
1.659000E-7	7.264611E-3
1.659500E-7	7.216648E-3
1.660000E-7	7.230352E-3
1.660500E-7	7.338268E-3
1.661000E-7	7.502711E-3
1.661500E-7	7.685996E-3
1.662000E-7	7.874420E-3
1.662500E-7	8.050854E-3
1.663000E-7	8.177612E-3
1.663500E-7	8.235852E-3
1.664000E-7	8.256408E-3
1.664500E-7	8.237566E-3
1.665000E-7	8.172474E-3
1.665500E-7	8.045716E-3
1.666000E-7	7.867569E-3
1.666500E-7	7.685997E-3
1.667000E-7	7.524980E-3
1.667500E-7	7.346833E-3
1.668000E-7	7.175538E-3
1.668500E-7	7.074474E-3
1.669000E-7	7.069336E-3
1.669500E-7	7.124150E-3
1.670000E-7	7.218362E-3
1.670500E-7	7.374240E-3
1.671000E-7	7.591784E-3
1.671500E-7	7.848726E-3
1.672000E-7	8.112520E-3
1.672500E-7	8.367749E-3
1.673000E-7	8.602423E-3
1.673500E-7	8.794273E-3
1.674000E-7	8.939874E-3
1.674500E-7	9.047789E-3
1.675000E-7	9.092326E-3
1.675500E-7	9.040938E-3
1.676000E-7	8.926171E-3
1.676500E-7	8.792561E-3
1.677000E-7	8.638396E-3
1.677500E-7	8.443120E-3
1.678000E-7	8.268399E-3
1.678500E-7	8.141641E-3
1.679000E-7	8.026873E-3
1.679500E-7	7.922383E-3
1.680000E-7	7.859004E-3
1.680500E-7	7.852152E-3
1.681000E-7	7.855578E-3
1.681500E-7	7.886411E-3
1.682000E-7	7.990901E-3
1.682500E-7	8.139927E-3
1.683000E-7	8.287241E-3
1.683500E-7	8.446545E-3
1.684000E-7	8.619553E-3
1.684500E-7	8.765154E-3
1.685000E-7	8.842236E-3
1.685500E-7	8.867931E-3
1.686000E-7	8.854227E-3
1.686500E-7	8.801126E-3
1.687000E-7	8.720617E-3
1.687500E-7	8.610988E-3
1.688000E-7	8.448258E-3
1.688500E-7	8.264973E-3
1.689000E-7	8.097104E-3
1.689500E-7	7.963494E-3
1.690000E-7	7.864143E-3
1.690500E-7	7.814468E-3
1.691000E-7	7.812755E-3
1.691500E-7	7.850440E-3
1.692000E-7	7.910393E-3
1.692500E-7	7.996041E-3
1.693000E-7	8.100531E-3
1.693500E-7	8.225576E-3
1.694000E-7	8.342056E-3
1.694500E-7	8.425991E-3
1.695000E-7	8.484231E-3
1.695500E-7	8.503073E-3
1.696000E-7	8.470527E-3
1.696500E-7	8.407148E-3
1.697000E-7	8.347195E-3
1.697500E-7	8.292380E-3
1.698000E-7	8.234140E-3
1.698500E-7	8.198168E-3
1.699000E-7	8.175899E-3
1.699500E-7	8.148492E-3
1.700000E-7	8.127936E-3
1.700500E-7	8.126223E-3
1.701000E-7	8.098816E-3
1.701500E-7	8.028585E-3
1.702000E-7	7.963494E-3
1.702500E-7	7.903541E-3
1.703000E-7	7.829884E-3
1.703500E-7	7.764792E-3
1.704000E-7	7.732246E-3
1.704500E-7	7.723682E-3
1.705000E-7	7.747663E-3
1.705500E-7	7.821320E-3
1.706000E-7	7.953217E-3
1.706500E-7	8.085113E-3
1.707000E-7	8.189603E-3
1.707500E-7	8.259834E-3
1.708000E-7	8.307796E-3
1.708500E-7	8.348907E-3
1.709000E-7	8.374601E-3
1.709500E-7	8.350620E-3
1.710000E-7	8.299232E-3
1.710500E-7	8.258121E-3
1.711000E-7	8.218723E-3
1.711500E-7	8.143354E-3
1.712000E-7	8.074836E-3
1.712500E-7	8.069697E-3
1.713000E-7	8.138215E-3
1.713500E-7	8.230714E-3
1.714000E-7	8.331778E-3
1.714500E-7	8.451685E-3
1.715000E-7	8.564739E-3
1.715500E-7	8.629831E-3
1.716000E-7	8.634970E-3
1.716500E-7	8.602424E-3
1.717000E-7	8.533906E-3
1.717500E-7	8.434555E-3
1.718000E-7	8.306083E-3
1.718500E-7	8.174186E-3
1.719000E-7	8.040576E-3
1.719500E-7	7.888124E-3
1.720000E-7	7.728820E-3
1.720500E-7	7.579793E-3
1.721000E-7	7.478729E-3
1.721500E-7	7.430767E-3
1.722000E-7	7.422202E-3
1.722500E-7	7.441045E-3
1.723000E-7	7.470165E-3
1.723500E-7	7.485582E-3
1.724000E-7	7.463314E-3
1.724500E-7	7.441045E-3
1.725000E-7	7.439332E-3
1.725500E-7	7.429054E-3
1.726000E-7	7.439332E-3
1.726500E-7	7.518127E-3
1.727000E-7	7.629469E-3
1.727500E-7	7.704839E-3
1.728000E-7	7.754514E-3
1.728500E-7	7.826458E-3
1.729000E-7	7.872707E-3
1.729500E-7	7.862429E-3
1.730000E-7	7.843587E-3
1.730500E-7	7.835022E-3
1.731000E-7	7.805902E-3
1.731500E-7	7.775069E-3
1.732000E-7	7.751088E-3
1.732500E-7	7.739097E-3
1.733000E-7	7.769930E-3
1.733500E-7	7.847013E-3
1.734000E-7	7.932660E-3
1.734500E-7	8.001178E-3
1.735000E-7	8.059418E-3
1.735500E-7	8.095390E-3
1.736000E-7	8.076548E-3
1.736500E-7	8.033724E-3
1.737000E-7	7.994327E-3
1.737500E-7	7.905254E-3
1.738000E-7	7.769931E-3
1.738500E-7	7.638034E-3
1.739000E-7	7.530119E-3
1.739500E-7	7.439333E-3
1.740000E-7	7.396509E-3
1.740500E-7	7.422203E-3
1.741000E-7	7.487295E-3
1.741500E-7	7.595211E-3
1.742000E-7	7.766505E-3
1.742500E-7	7.965207E-3
1.743000E-7	8.145066E-3
1.743500E-7	8.285528E-3
1.744000E-7	8.386592E-3
1.744500E-7	8.444832E-3
1.745000E-7	8.455110E-3
1.745500E-7	8.395157E-3
1.746000E-7	8.282102E-3
1.746500E-7	8.151919E-3
1.747000E-7	8.011457E-3
1.747500E-7	7.857292E-3
1.748000E-7	7.718543E-3
1.748500E-7	7.627757E-3
1.749000E-7	7.591785E-3
1.749500E-7	7.608915E-3
1.750000E-7	7.658590E-3
1.750500E-7	7.692849E-3
1.751000E-7	7.709978E-3
1.751500E-7	7.733960E-3
1.752000E-7	7.780209E-3
1.752500E-7	7.828171E-3
1.753000E-7	7.876134E-3
1.753500E-7	7.929235E-3
1.754000E-7	7.968633E-3
1.754500E-7	7.992614E-3
1.755000E-7	8.026873E-3
1.755500E-7	8.071410E-3
1.756000E-7	8.102243E-3
1.756500E-7	8.121085E-3
1.757000E-7	8.143354E-3
1.757500E-7	8.150205E-3
1.758000E-7	8.141641E-3
1.758500E-7	8.141640E-3
1.759000E-7	8.157057E-3
1.759500E-7	8.150205E-3
1.760000E-7	8.110807E-3
1.760500E-7	8.066271E-3
1.761000E-7	8.033725E-3
1.761500E-7	8.011456E-3
1.762000E-7	7.987475E-3
1.762500E-7	7.961781E-3
1.763000E-7	7.949790E-3
1.763500E-7	7.965207E-3
1.764000E-7	7.977197E-3
1.764500E-7	7.973771E-3
1.765000E-7	7.968632E-3
1.765500E-7	7.951503E-3
1.766000E-7	7.908679E-3
1.766500E-7	7.865855E-3
1.767000E-7	7.860716E-3
1.767500E-7	7.879559E-3
1.768000E-7	7.889837E-3
1.768500E-7	7.922383E-3
1.769000E-7	7.997753E-3
1.769500E-7	8.055993E-3
1.770000E-7	8.081687E-3
1.770500E-7	8.114234E-3
1.771000E-7	8.146780E-3
1.771500E-7	8.136502E-3
1.772000E-7	8.107382E-3
1.772500E-7	8.090252E-3
1.773000E-7	8.061132E-3
1.773500E-7	7.987475E-3
1.774000E-7	7.918958E-3
1.774500E-7	7.894976E-3
1.775000E-7	7.896689E-3
1.775500E-7	7.905254E-3
1.776000E-7	7.958355E-3
1.776500E-7	8.052567E-3
1.777000E-7	8.160483E-3
1.777500E-7	8.239278E-3
1.778000E-7	8.288954E-3
1.778500E-7	8.312935E-3
1.779000E-7	8.297518E-3
1.779500E-7	8.215297E-3
1.780000E-7	8.074835E-3
1.780500E-7	7.910392E-3
1.781000E-7	7.740810E-3
1.781500E-7	7.562664E-3
1.782000E-7	7.403360E-3
1.782500E-7	7.278315E-3
1.783000E-7	7.197807E-3
1.783500E-7	7.175539E-3
1.784000E-7	7.220075E-3
1.784500E-7	7.324565E-3
1.785000E-7	7.506138E-3
1.785500E-7	7.730534E-3
1.786000E-7	7.925810E-3
1.786500E-7	8.081688E-3
1.787000E-7	8.232427E-3
1.787500E-7	8.374601E-3
1.788000E-7	8.465387E-3
1.788500E-7	8.525340E-3
1.789000E-7	8.568164E-3
1.789500E-7	8.581868E-3
1.790000E-7	8.571590E-3
1.790500E-7	8.561313E-3
1.791000E-7	8.542470E-3
1.791500E-7	8.503073E-3
1.792000E-7	8.472240E-3
1.792500E-7	8.467101E-3
1.793000E-7	8.473953E-3
1.793500E-7	8.468814E-3
1.794000E-7	8.487657E-3
1.794500E-7	8.528768E-3
1.795000E-7	8.590434E-3
1.795500E-7	8.653813E-3
1.796000E-7	8.712053E-3
1.796500E-7	8.766867E-3
1.797000E-7	8.835384E-3
1.797500E-7	8.910754E-3
1.798000E-7	8.972420E-3
1.798500E-7	9.027234E-3
1.799000E-7	9.073484E-3
1.799500E-7	9.090613E-3
1.800000E-7	9.051216E-3
1.800500E-7	8.970707E-3
1.801000E-7	8.871356E-3
1.801500E-7	8.748024E-3
1.802000E-7	8.605849E-3
1.802500E-7	8.468814E-3
1.803000E-7	8.354046E-3
1.803500E-7	8.266686E-3
1.804000E-7	8.215297E-3
1.804500E-7	8.225575E-3
1.805000E-7	8.294093E-3
1.805500E-7	8.410574E-3
1.806000E-7	8.556174E-3
1.806500E-7	8.725756E-3
1.807000E-7	8.879921E-3
1.807500E-7	8.994689E-3
1.808000E-7	9.092327E-3
1.808500E-7	9.172835E-3
1.809000E-7	9.225937E-3
1.809500E-7	9.243066E-3
1.810000E-7	9.227650E-3
1.810500E-7	9.171122E-3
1.811000E-7	9.076910E-3
1.811500E-7	8.962143E-3
1.812000E-7	8.867930E-3
1.812500E-7	8.809690E-3
1.813000E-7	8.778857E-3
1.813500E-7	8.734320E-3
1.814000E-7	8.674367E-3
1.814500E-7	8.612701E-3
1.815000E-7	8.557887E-3
1.815500E-7	8.497934E-3
1.816000E-7	8.455110E-3
1.816500E-7	8.431129E-3
1.817000E-7	8.408861E-3
1.817500E-7	8.381454E-3
1.818000E-7	8.362612E-3
1.818500E-7	8.360899E-3
1.819000E-7	8.378029E-3
1.819500E-7	8.402010E-3
1.820000E-7	8.414000E-3
1.820500E-7	8.420852E-3
1.821000E-7	8.436268E-3
1.821500E-7	8.446546E-3
1.822000E-7	8.451684E-3
1.822500E-7	8.480804E-3
1.823000E-7	8.523628E-3
1.823500E-7	8.563025E-3
1.824000E-7	8.590432E-3
1.824500E-7	8.602423E-3
1.825000E-7	8.585294E-3
1.825500E-7	8.544183E-3
1.826000E-7	8.491082E-3
1.826500E-7	8.432842E-3
1.827000E-7	8.395157E-3
1.827500E-7	8.364324E-3
1.828000E-7	8.304371E-3
1.828500E-7	8.237566E-3
1.829000E-7	8.189603E-3
1.829500E-7	8.139928E-3
1.830000E-7	8.083400E-3
1.830500E-7	8.062845E-3
1.831000E-7	8.076548E-3
1.831500E-7	8.085113E-3
1.832000E-7	8.093678E-3
1.832500E-7	8.138214E-3
1.833000E-7	8.184464E-3
1.833500E-7	8.217010E-3
1.834000E-7	8.234139E-3
1.834500E-7	8.235852E-3
1.835000E-7	8.222148E-3
1.835500E-7	8.191315E-3
1.836000E-7	8.153630E-3
1.836500E-7	8.117658E-3
1.837000E-7	8.076548E-3
1.837500E-7	8.013169E-3
1.838000E-7	7.930948E-3
1.838500E-7	7.865856E-3
1.839000E-7	7.824745E-3
1.839500E-7	7.793913E-3
1.840000E-7	7.793913E-3
1.840500E-7	7.848727E-3
1.841000E-7	7.934374E-3
1.841500E-7	8.023447E-3
1.842000E-7	8.143353E-3
1.842500E-7	8.263259E-3
1.843000E-7	8.309509E-3
1.843500E-7	8.297518E-3
1.844000E-7	8.271823E-3
1.844500E-7	8.208444E-3
1.845000E-7	8.067983E-3
1.845500E-7	7.896688E-3
1.846000E-7	7.708264E-3
1.846500E-7	7.526692E-3
1.847000E-7	7.398221E-3
1.847500E-7	7.343407E-3
1.848000E-7	7.322852E-3
1.848500E-7	7.365676E-3
1.849000E-7	7.524980E-3
1.849500E-7	7.775070E-3
1.850000E-7	8.044003E-3
1.850500E-7	8.292380E-3
1.851000E-7	8.513350E-3
1.851500E-7	8.672654E-3
1.852000E-7	8.780570E-3
1.852500E-7	8.821681E-3
1.853000E-7	8.787422E-3
1.853500E-7	8.688071E-3
1.854000E-7	8.561313E-3
1.854500E-7	8.453397E-3
1.855000E-7	8.366037E-3
1.855500E-7	8.306083E-3
1.856000E-7	8.280389E-3
1.856500E-7	8.285528E-3
1.857000E-7	8.323213E-3
1.857500E-7	8.412286E-3
1.858000E-7	8.516776E-3
1.858500E-7	8.573303E-3
1.859000E-7	8.595571E-3
1.859500E-7	8.600710E-3
1.860000E-7	8.563025E-3
1.860500E-7	8.472239E-3
1.861000E-7	8.352333E-3
1.861500E-7	8.220436E-3
1.862000E-7	8.069696E-3
1.862500E-7	7.934374E-3
1.863000E-7	7.850439E-3
1.863500E-7	7.802476E-3
1.864000E-7	7.790486E-3
1.864500E-7	7.843587E-3
1.865000E-7	7.937799E-3
1.865500E-7	8.033724E-3
1.866000E-7	8.139926E-3
1.866500E-7	8.247842E-3
1.867000E-7	8.314647E-3
1.867500E-7	8.350619E-3
1.868000E-7	8.366036E-3
1.868500E-7	8.357471E-3
1.869000E-7	8.307796E-3
1.869500E-7	8.222149E-3
1.870000E-7	8.086827E-3
1.870500E-7	7.951504E-3
1.871000E-7	7.869283E-3
1.871500E-7	7.821321E-3
1.872000E-7	7.781923E-3
1.872500E-7	7.788775E-3
1.873000E-7	7.838450E-3
1.873500E-7	7.872709E-3
1.874000E-7	7.874422E-3
1.874500E-7	7.891551E-3
1.875000E-7	7.906968E-3
1.875500E-7	7.886412E-3
1.876000E-7	7.850440E-3
1.876500E-7	7.811043E-3
1.877000E-7	7.757941E-3
1.877500E-7	7.704840E-3
1.878000E-7	7.680859E-3
1.878500E-7	7.713405E-3
1.879000E-7	7.802478E-3
1.879500E-7	7.941227E-3
1.880000E-7	8.102244E-3
1.880500E-7	8.294094E-3
1.881000E-7	8.516777E-3
1.881500E-7	8.744599E-3
1.882000E-7	8.936448E-3
1.882500E-7	9.106030E-3
1.883000E-7	9.225936E-3
1.883500E-7	9.268759E-3
1.884000E-7	9.231074E-3
1.884500E-7	9.145426E-3
1.885000E-7	9.018668E-3
1.885500E-7	8.855938E-3
1.886000E-7	8.664088E-3
1.886500E-7	8.458534E-3
1.887000E-7	8.264971E-3
1.887500E-7	8.107380E-3
1.888000E-7	7.999465E-3
1.888500E-7	7.958354E-3
1.889000E-7	7.963493E-3
1.889500E-7	7.984049E-3
1.890000E-7	8.026873E-3
1.890500E-7	8.100530E-3
1.891000E-7	8.182751E-3
1.891500E-7	8.258121E-3
1.892000E-7	8.333491E-3
1.892500E-7	8.405435E-3
1.893000E-7	8.443120E-3
1.893500E-7	8.422564E-3
1.894000E-7	8.352333E-3
1.894500E-7	8.264973E-3
1.895000E-7	8.193029E-3
1.895500E-7	8.117659E-3
1.896000E-7	8.057706E-3
1.896500E-7	8.023447E-3
1.897000E-7	8.004605E-3
1.897500E-7	7.992614E-3
1.898000E-7	7.996040E-3
1.898500E-7	8.009743E-3
1.899000E-7	8.052567E-3
1.899500E-7	8.131362E-3
1.900000E-7	8.217010E-3
1.900500E-7	8.268398E-3
1.901000E-7	8.300944E-3
1.901500E-7	8.309509E-3
1.902000E-7	8.288954E-3
1.902500E-7	8.256408E-3
1.903000E-7	8.229001E-3
1.903500E-7	8.189603E-3
1.904000E-7	8.138215E-3
1.904500E-7	8.103956E-3
1.905000E-7	8.083400E-3
1.905500E-7	8.074836E-3
1.906000E-7	8.085113E-3
1.906500E-7	8.110807E-3
1.907000E-7	8.148492E-3
1.907500E-7	8.199881E-3
1.908000E-7	8.247843E-3
1.908500E-7	8.254695E-3
1.909000E-7	8.244417E-3
1.909500E-7	8.225574E-3
1.910000E-7	8.170760E-3
1.910500E-7	8.102242E-3
1.911000E-7	8.047428E-3
1.911500E-7	7.992614E-3
1.912000E-7	7.912105E-3
1.912500E-7	7.838449E-3
1.913000E-7	7.800764E-3
1.913500E-7	7.788773E-3
1.914000E-7	7.792199E-3
1.914500E-7	7.826458E-3
1.915000E-7	7.894976E-3
1.915500E-7	7.978911E-3
1.916000E-7	8.050855E-3
1.916500E-7	8.119373E-3
1.917000E-7	8.175900E-3
1.917500E-7	8.205020E-3
1.918000E-7	8.220436E-3
1.918500E-7	8.230714E-3
1.919000E-7	8.230714E-3
1.919500E-7	8.208446E-3
1.920000E-7	8.206733E-3
1.920500E-7	8.230714E-3
1.921000E-7	8.263260E-3
1.921500E-7	8.290667E-3
1.922000E-7	8.328352E-3
1.922500E-7	8.364324E-3
1.923000E-7	8.410573E-3
1.923500E-7	8.449971E-3
1.924000E-7	8.472239E-3
1.924500E-7	8.487656E-3
1.925000E-7	8.477378E-3
1.925500E-7	8.407147E-3
1.926000E-7	8.304370E-3
1.926500E-7	8.213584E-3
1.927000E-7	8.124511E-3
1.927500E-7	8.026873E-3
1.928000E-7	7.978911E-3
1.928500E-7	7.965207E-3
1.929000E-7	7.953217E-3
1.929500E-7	7.956643E-3
1.930000E-7	8.014883E-3
1.930500E-7	8.085114E-3
1.931000E-7	8.143354E-3
1.931500E-7	8.213585E-3
1.932000E-7	8.300945E-3
1.932500E-7	8.376315E-3
1.933000E-7	8.422565E-3
1.933500E-7	8.437981E-3
1.934000E-7	8.408861E-3
1.934500E-7	8.348908E-3
1.935000E-7	8.276964E-3
1.935500E-7	8.191317E-3
1.936000E-7	8.097104E-3
1.936500E-7	8.033725E-3
1.937000E-7	8.006317E-3
1.937500E-7	7.989187E-3
1.938000E-7	7.994326E-3
1.938500E-7	8.061130E-3
1.939000E-7	8.184462E-3
1.939500E-7	8.311221E-3
1.940000E-7	8.413998E-3
1.940500E-7	8.494506E-3
1.941000E-7	8.511636E-3
1.941500E-7	8.453396E-3
1.942000E-7	8.355759E-3
1.942500E-7	8.254695E-3
1.943000E-7	8.133076E-3
1.943500E-7	7.973772E-3
1.944000E-7	7.812755E-3
1.944500E-7	7.679146E-3
1.945000E-7	7.576369E-3
1.945500E-7	7.495860E-3
1.946000E-7	7.459888E-3
1.946500E-7	7.466739E-3
1.947000E-7	7.523267E-3
1.947500E-7	7.626043E-3
1.948000E-7	7.785347E-3
1.948500E-7	8.002891E-3
1.949000E-7	8.242704E-3
1.949500E-7	8.449971E-3
1.950000E-7	8.629830E-3
1.950500E-7	8.782282E-3
1.951000E-7	8.888485E-3
1.951500E-7	8.941586E-3
1.952000E-7	8.953577E-3
1.952500E-7	8.897050E-3
1.953000E-7	8.746310E-3
1.953500E-7	8.545895E-3
1.954000E-7	8.352332E-3
1.954500E-7	8.162195E-3
1.955000E-7	7.961780E-3
1.955500E-7	7.756226E-3
1.956000E-7	7.598635E-3
1.956500E-7	7.500997E-3
1.957000E-7	7.447896E-3
1.957500E-7	7.453035E-3
1.958000E-7	7.543821E-3
1.958500E-7	7.718542E-3
1.959000E-7	7.930948E-3
1.959500E-7	8.139927E-3
1.960000E-7	8.326639E-3
1.960500E-7	8.496221E-3
1.961000E-7	8.652099E-3
1.961500E-7	8.756589E-3
1.962000E-7	8.799412E-3
1.962500E-7	8.799412E-3
1.963000E-7	8.754875E-3
1.963500E-7	8.658950E-3
1.964000E-7	8.539043E-3
1.964500E-7	8.420850E-3
1.965000E-7	8.307795E-3
1.965500E-7	8.215296E-3
1.966000E-7	8.169047E-3
1.966500E-7	8.162195E-3
1.967000E-7	8.175899E-3
1.967500E-7	8.193028E-3
1.968000E-7	8.225574E-3
1.968500E-7	8.285528E-3
1.969000E-7	8.345481E-3
1.969500E-7	8.379740E-3
1.970000E-7	8.376314E-3
1.970500E-7	8.340342E-3
1.971000E-7	8.252982E-3
1.971500E-7	8.117659E-3
1.972000E-7	7.966920E-3
1.972500E-7	7.793912E-3
1.973000E-7	7.591784E-3
1.973500E-7	7.398221E-3
1.974000E-7	7.245769E-3
1.974500E-7	7.110446E-3
1.975000E-7	7.011095E-3
1.975500E-7	6.975123E-3
1.976000E-7	6.992253E-3
1.976500E-7	7.041929E-3
1.977000E-7	7.127576E-3
1.977500E-7	7.235492E-3
1.978000E-7	7.331417E-3
1.978500E-7	7.441045E-3
1.979000E-7	7.581507E-3
1.979500E-7	7.696275E-3
1.980000E-7	7.781922E-3
1.980500E-7	7.876134E-3
1.981000E-7	7.954929E-3
1.981500E-7	8.013170E-3
1.982000E-7	8.088539E-3
1.982500E-7	8.175900E-3
1.983000E-7	8.242705E-3
1.983500E-7	8.300945E-3
1.984000E-7	8.360898E-3
1.984500E-7	8.415713E-3
1.985000E-7	8.444833E-3
1.985500E-7	8.458536E-3
1.986000E-7	8.461962E-3
1.986500E-7	8.472240E-3
1.987000E-7	8.480805E-3
1.987500E-7	8.461962E-3
1.988000E-7	8.403722E-3
1.988500E-7	8.335204E-3
1.989000E-7	8.278677E-3
1.989500E-7	8.220436E-3
1.990000E-7	8.145066E-3
1.990500E-7	8.042289E-3
1.991000E-7	7.925809E-3
1.991500E-7	7.823032E-3
1.992000E-7	7.756227E-3
1.992500E-7	7.699700E-3
1.993000E-7	7.646599E-3
1.993500E-7	7.610627E-3
1.994000E-7	7.631182E-3
1.994500E-7	7.723682E-3
1.995000E-7	7.859005E-3
1.995500E-7	8.025161E-3
1.996000E-7	8.234140E-3
1.996500E-7	8.492795E-3
1.997000E-7	8.760015E-3
1.997500E-7	9.004966E-3
1.998000E-7	9.237927E-3
1.998500E-7	9.438341E-3
1.999000E-7	9.549682E-3
1.999500E-7	9.573664E-3
2.000000E-7	9.535979E-3
