Study Name	Tungsten_Kyocera
Sample Name	2024-02-05
Run Name	spot01
Operator	Angus+Samantha
Date	2/5/2024
Time	16:11
Sign	FIX
Grating Spacing	03.40um
Channel	3
Number Traces	10000
Files in Batch	1
Batch Number	1
dt	50.000001E-12
time stamp (ms)	4:12:26 PM
	
Time	Amplitude
0.000000E+0	3.540660E-3
5.000000E-11	3.568067E-3
1.000000E-10	3.614317E-3
1.500000E-10	3.672557E-3
2.000000E-10	3.706816E-3
2.500000E-10	3.720520E-3
3.000000E-10	3.742788E-3
3.500000E-10	3.753066E-3
4.000000E-10	3.732510E-3
4.500000E-10	3.710242E-3
5.000000E-10	3.691400E-3
5.500000E-10	3.657141E-3
6.000000E-10	3.629733E-3
6.500000E-10	3.621169E-3
7.000000E-10	3.624595E-3
7.500000E-10	3.640011E-3
8.000000E-10	3.662280E-3
8.500000E-10	3.645150E-3
9.000000E-10	3.568067E-3
9.500000E-10	3.475568E-3
1.000000E-9	3.379643E-3
1.050000E-9	3.268301E-3
1.100000E-9	3.165524E-3
1.150000E-9	3.079876E-3
1.200000E-9	3.007933E-3
1.250000E-9	2.982238E-3
1.300000E-9	3.037053E-3
1.350000E-9	3.141543E-3
1.400000E-9	3.247746E-3
1.450000E-9	3.364226E-3
1.500000E-9	3.487559E-3
1.550000E-9	3.602326E-3
1.600000E-9	3.682835E-3
1.650000E-9	3.715381E-3
1.700000E-9	3.693113E-3
1.750000E-9	3.621169E-3
1.800000E-9	3.497836E-3
1.850000E-9	3.335106E-3
1.900000E-9	3.155246E-3
1.950000E-9	2.983951E-3
2.000000E-9	2.855480E-3
2.050000E-9	2.776684E-3
2.100000E-9	2.745851E-3
2.150000E-9	2.762981E-3
2.200000E-9	2.845202E-3
2.250000E-9	2.978812E-3
2.300000E-9	3.107284E-3
2.350000E-9	3.220338E-3
2.400000E-9	3.324828E-3
2.450000E-9	3.405337E-3
2.500000E-9	3.453300E-3
2.550000E-9	3.478994E-3
2.600000E-9	3.494410E-3
2.650000E-9	3.485846E-3
2.700000E-9	3.448161E-3
2.750000E-9	3.374504E-3
2.800000E-9	3.271727E-3
2.850000E-9	3.177515E-3
2.900000E-9	3.112423E-3
2.950000E-9	3.062747E-3
3.000000E-9	3.035340E-3
3.050000E-9	3.047330E-3
3.100000E-9	3.119274E-3
3.150000E-9	3.252884E-3
3.200000E-9	3.425892E-3
3.250000E-9	3.614317E-3
3.300000E-9	3.807880E-3
3.350000E-9	3.992879E-3
3.400000E-9	4.157322E-3
3.450000E-9	4.284080E-3
3.500000E-9	4.366302E-3
3.550000E-9	4.400561E-3
3.600000E-9	4.412552E-3
3.650000E-9	4.388570E-3
3.700000E-9	4.289219E-3
3.750000E-9	4.135054E-3
3.800000E-9	3.999731E-3
3.850000E-9	3.886676E-3
3.900000E-9	3.747927E-3
3.950000E-9	3.628021E-3
4.000000E-9	3.592049E-3
4.050000E-9	3.609178E-3
4.100000E-9	3.614317E-3
4.150000E-9	3.605752E-3
4.200000E-9	3.597187E-3
4.250000E-9	3.550938E-3
4.300000E-9	3.473855E-3
4.350000E-9	3.415615E-3
4.400000E-9	3.364226E-3
4.450000E-9	3.282005E-3
4.500000E-9	3.218625E-3
4.550000E-9	3.225477E-3
4.600000E-9	3.271727E-3
4.650000E-9	3.353948E-3
4.700000E-9	3.494410E-3
4.750000E-9	3.675983E-3
4.800000E-9	3.854130E-3
4.850000E-9	4.025425E-3
4.900000E-9	4.165887E-3
4.950000E-9	4.251534E-3
5.000000E-9	4.285793E-3
5.050000E-9	4.277229E-3
5.100000E-9	4.203572E-3
5.150000E-9	4.064823E-3
5.200000E-9	3.896954E-3
5.250000E-9	3.735936E-3
5.300000E-9	3.586910E-3
5.350000E-9	3.458438E-3
5.400000E-9	3.371078E-3
5.450000E-9	3.348810E-3
5.500000E-9	3.379643E-3
5.550000E-9	3.439596E-3
5.600000E-9	3.518392E-3
5.650000E-9	3.598900E-3
5.700000E-9	3.663992E-3
5.750000E-9	3.698251E-3
5.800000E-9	3.708529E-3
5.850000E-9	3.694826E-3
5.900000E-9	3.645150E-3
5.950000E-9	3.568067E-3
6.000000E-9	3.480707E-3
6.050000E-9	3.386495E-3
6.100000E-9	3.285430E-3
6.150000E-9	3.180941E-3
6.200000E-9	3.095293E-3
6.250000E-9	3.038766E-3
6.300000E-9	2.999368E-3
6.350000E-9	2.958257E-3
6.400000E-9	2.894878E-3
6.450000E-9	2.810943E-3
6.500000E-9	2.713305E-3
6.550000E-9	2.608815E-3
6.600000E-9	2.526594E-3
6.650000E-9	2.478631E-3
6.700000E-9	2.432381E-3
6.750000E-9	2.404974E-3
6.800000E-9	2.437520E-3
6.850000E-9	2.524881E-3
6.900000E-9	2.658491E-3
6.950000E-9	2.845202E-3
7.000000E-9	3.055895E-3
7.050000E-9	3.246033E-3
7.100000E-9	3.431031E-3
7.150000E-9	3.624595E-3
7.200000E-9	3.787325E-3
7.250000E-9	3.898667E-3
7.300000E-9	3.991166E-3
7.350000E-9	4.063110E-3
7.400000E-9	4.080239E-3
7.450000E-9	4.057971E-3
7.500000E-9	4.025425E-3
7.550000E-9	3.982601E-3
7.600000E-9	3.922648E-3
7.650000E-9	3.878111E-3
7.700000E-9	3.845565E-3
7.750000E-9	3.801028E-3
7.800000E-9	3.749640E-3
7.850000E-9	3.720520E-3
7.900000E-9	3.715381E-3
7.950000E-9	3.734223E-3
8.000000E-9	3.759918E-3
8.050000E-9	3.778760E-3
8.100000E-9	3.790751E-3
8.150000E-9	3.795890E-3
8.200000E-9	3.802741E-3
8.250000E-9	3.804454E-3
8.300000E-9	3.777047E-3
8.350000E-9	3.723946E-3
8.400000E-9	3.667418E-3
8.450000E-9	3.614317E-3
8.500000E-9	3.532095E-3
8.550000E-9	3.441309E-3
8.600000E-9	3.393346E-3
8.650000E-9	3.381356E-3
8.700000E-9	3.350523E-3
8.750000E-9	3.300847E-3
8.800000E-9	3.297421E-3
8.850000E-9	3.324828E-3
8.900000E-9	3.367652E-3
8.950000E-9	3.455013E-3
9.000000E-9	3.583484E-3
9.050000E-9	3.694826E-3
9.100000E-9	3.766769E-3
9.150000E-9	3.843852E-3
9.200000E-9	3.939777E-3
9.250000E-9	4.011721E-3
9.300000E-9	4.045980E-3
9.350000E-9	4.054545E-3
9.400000E-9	4.047693E-3
9.450000E-9	4.018573E-3
9.500000E-9	3.951768E-3
9.550000E-9	3.859269E-3
9.600000E-9	3.754779E-3
9.650000E-9	3.621169E-3
9.700000E-9	3.458438E-3
9.750000E-9	3.278579E-3
9.800000E-9	3.098719E-3
9.850000E-9	2.917146E-3
9.900000E-9	2.776684E-3
9.950000E-9	2.692750E-3
1.000000E-8	2.651639E-3
1.005000E-8	2.653352E-3
1.010000E-8	2.704740E-3
1.015000E-8	2.805804E-3
1.020000E-8	2.923998E-3
1.025000E-8	3.033627E-3
1.030000E-8	3.126126E-3
1.035000E-8	3.201496E-3
1.040000E-8	3.263162E-3
1.045000E-8	3.304273E-3
1.050000E-8	3.307699E-3
1.055000E-8	3.263162E-3
1.060000E-8	3.199783E-3
1.065000E-8	3.155246E-3
1.070000E-8	3.120987E-3
1.075000E-8	3.103858E-3
1.080000E-8	3.129552E-3
1.085000E-8	3.198070E-3
1.090000E-8	3.304273E-3
1.095000E-8	3.446448E-3
1.100000E-8	3.583484E-3
1.105000E-8	3.672557E-3
1.110000E-8	3.729085E-3
1.115000E-8	3.763344E-3
1.120000E-8	3.751353E-3
1.125000E-8	3.693113E-3
1.130000E-8	3.628021E-3
1.135000E-8	3.530382E-3
1.140000E-8	3.389920E-3
1.145000E-8	3.252884E-3
1.150000E-8	3.165524E-3
1.155000E-8	3.155246E-3
1.160000E-8	3.234042E-3
1.165000E-8	3.405337E-3
1.170000E-8	3.689687E-3
1.175000E-8	4.176165E-3
1.180000E-8	4.916159E-3
1.185000E-8	5.923374E-3
1.190000E-8	7.264613E-3
1.195000E-8	9.006684E-3
1.200000E-8	1.115815E-2
1.205000E-8	1.370531E-2
1.210000E-8	1.665501E-2
1.215000E-8	1.995072E-2
1.220000E-8	2.352222E-2
1.225000E-8	2.732668E-2
1.230000E-8	3.128360E-2
1.235000E-8	3.528505E-2
1.240000E-8	3.922655E-2
1.245000E-8	4.298990E-2
1.250000E-8	4.644835E-2
1.255000E-8	4.953679E-2
1.260000E-8	5.220386E-2
1.265000E-8	5.436560E-2
1.270000E-8	5.601175E-2
1.275000E-8	5.717141E-2
1.280000E-8	5.780863E-2
1.285000E-8	5.787372E-2
1.290000E-8	5.737697E-2
1.295000E-8	5.638003E-2
1.300000E-8	5.487435E-2
1.305000E-8	5.292158E-2
1.310000E-8	5.063651E-2
1.315000E-8	4.815616E-2
1.320000E-8	4.556960E-2
1.325000E-8	4.297448E-2
1.330000E-8	4.051811E-2
1.335000E-8	3.826558E-2
1.340000E-8	3.627000E-2
1.345000E-8	3.459644E-2
1.350000E-8	3.332372E-2
1.355000E-8	3.248438E-2
1.360000E-8	3.205785E-2
1.365000E-8	3.206984E-2
1.370000E-8	3.250836E-2
1.375000E-8	3.327405E-2
1.380000E-8	3.425214E-2
1.385000E-8	3.536556E-2
1.390000E-8	3.656805E-2
1.395000E-8	3.774999E-2
1.400000E-8	3.882914E-2
1.405000E-8	3.974386E-2
1.410000E-8	4.044788E-2
1.415000E-8	4.083843E-2
1.420000E-8	4.085214E-2
1.425000E-8	4.052496E-2
1.430000E-8	3.986719E-2
1.435000E-8	3.888567E-2
1.440000E-8	3.760096E-2
1.445000E-8	3.605930E-2
1.450000E-8	3.427441E-2
1.455000E-8	3.233192E-2
1.460000E-8	3.032263E-2
1.465000E-8	2.833219E-2
1.470000E-8	2.646850E-2
1.475000E-8	2.483434E-2
1.480000E-8	2.347940E-2
1.485000E-8	2.245163E-2
1.490000E-8	2.182298E-2
1.495000E-8	2.163798E-2
1.500000E-8	2.187094E-2
1.505000E-8	2.248417E-2
1.510000E-8	2.342801E-2
1.515000E-8	2.462194E-2
1.520000E-8	2.598887E-2
1.525000E-8	2.743974E-2
1.530000E-8	2.885806E-2
1.535000E-8	3.013764E-2
1.540000E-8	3.122193E-2
1.545000E-8	3.204244E-2
1.550000E-8	3.253919E-2
1.555000E-8	3.269678E-2
1.560000E-8	3.249979E-2
1.565000E-8	3.189855E-2
1.570000E-8	3.090504E-2
1.575000E-8	2.959977E-2
1.580000E-8	2.804784E-2
1.585000E-8	2.626466E-2
1.590000E-8	2.434444E-2
1.595000E-8	2.242765E-2
1.600000E-8	2.058965E-2
1.605000E-8	1.891610E-2
1.610000E-8	1.749778E-2
1.615000E-8	1.639292E-2
1.620000E-8	1.561524E-2
1.625000E-8	1.519215E-2
1.630000E-8	1.514932E-2
1.635000E-8	1.548849E-2
1.640000E-8	1.617881E-2
1.645000E-8	1.717403E-2
1.650000E-8	1.840735E-2
1.655000E-8	1.979998E-2
1.660000E-8	2.126798E-2
1.665000E-8	2.270343E-2
1.670000E-8	2.402754E-2
1.675000E-8	2.519406E-2
1.680000E-8	2.614646E-2
1.685000E-8	2.683164E-2
1.690000E-8	2.720507E-2
1.695000E-8	2.718794E-2
1.700000E-8	2.671687E-2
1.705000E-8	2.583642E-2
1.710000E-8	2.460138E-2
1.715000E-8	2.304260E-2
1.720000E-8	2.121145E-2
1.725000E-8	1.925698E-2
1.730000E-8	1.730593E-2
1.735000E-8	1.541140E-2
1.740000E-8	1.368475E-2
1.745000E-8	1.227499E-2
1.750000E-8	1.125579E-2
1.755000E-8	1.061514E-2
1.760000E-8	1.036848E-2
1.765000E-8	1.054834E-2
1.770000E-8	1.116157E-2
1.775000E-8	1.214823E-2
1.780000E-8	1.343809E-2
1.785000E-8	1.495233E-2
1.790000E-8	1.657450E-2
1.795000E-8	1.820009E-2
1.800000E-8	1.973489E-2
1.805000E-8	2.109155E-2
1.810000E-8	2.218441E-2
1.815000E-8	2.295866E-2
1.820000E-8	2.339718E-2
1.825000E-8	2.345199E-2
1.830000E-8	2.311454E-2
1.835000E-8	2.241566E-2
1.840000E-8	2.140330E-2
1.845000E-8	2.009461E-2
1.850000E-8	1.852212E-2
1.855000E-8	1.679204E-2
1.860000E-8	1.500372E-2
1.865000E-8	1.323082E-2
1.870000E-8	1.157268E-2
1.875000E-8	1.013552E-2
1.880000E-8	8.982702E-3
1.885000E-8	8.131366E-3
1.890000E-8	7.632898E-3
1.895000E-8	7.547250E-3
1.900000E-8	7.881275E-3
1.905000E-8	8.587011E-3
1.910000E-8	9.616494E-3
1.915000E-8	1.092005E-2
1.920000E-8	1.242059E-2
1.925000E-8	1.404447E-2
1.930000E-8	1.570603E-2
1.935000E-8	1.729222E-2
1.940000E-8	1.867971E-2
1.945000E-8	1.981197E-2
1.950000E-8	2.064275E-2
1.955000E-8	2.110182E-2
1.960000E-8	2.114293E-2
1.965000E-8	2.079349E-2
1.970000E-8	2.007577E-2
1.975000E-8	1.901031E-2
1.980000E-8	1.765023E-2
1.985000E-8	1.607089E-2
1.990000E-8	1.433396E-2
1.995000E-8	1.254050E-2
2.000000E-8	1.081042E-2
2.005000E-8	9.229367E-3
2.010000E-8	7.855581E-3
2.015000E-8	6.759293E-3
2.020000E-8	6.022725E-3
2.025000E-8	5.692125E-3
2.030000E-8	5.800041E-3
2.035000E-8	6.305361E-3
2.040000E-8	7.153272E-3
2.045000E-8	8.311226E-3
2.050000E-8	9.729549E-3
2.055000E-8	1.129347E-2
2.060000E-8	1.289508E-2
2.065000E-8	1.446586E-2
2.070000E-8	1.591672E-2
2.075000E-8	1.714320E-2
2.080000E-8	1.808018E-2
2.085000E-8	1.867286E-2
2.090000E-8	1.884758E-2
2.095000E-8	1.860434E-2
2.100000E-8	1.799796E-2
2.105000E-8	1.706611E-2
2.110000E-8	1.583450E-2
2.115000E-8	1.437336E-2
2.120000E-8	1.276490E-2
2.125000E-8	1.110162E-2
2.130000E-8	9.486310E-3
2.135000E-8	7.987478E-3
2.140000E-8	6.658229E-3
2.145000E-8	5.572219E-3
2.150000E-8	4.792827E-3
2.155000E-8	4.342321E-3
2.160000E-8	4.270377E-3
2.165000E-8	4.612967E-3
2.170000E-8	5.311850E-3
2.175000E-8	6.303648E-3
2.180000E-8	7.550676E-3
2.185000E-8	8.980989E-3
2.190000E-8	1.047982E-2
2.195000E-8	1.196324E-2
2.200000E-8	1.336100E-2
2.205000E-8	1.459261E-2
2.210000E-8	1.560154E-2
2.215000E-8	1.633468E-2
2.220000E-8	1.674237E-2
2.225000E-8	1.678519E-2
2.230000E-8	1.645973E-2
2.235000E-8	1.576256E-2
2.240000E-8	1.473993E-2
2.245000E-8	1.347406E-2
2.250000E-8	1.204374E-2
2.255000E-8	1.050723E-2
2.260000E-8	8.926175E-3
2.265000E-8	7.387946E-3
2.270000E-8	5.979901E-3
2.275000E-8	4.797965E-3
2.280000E-8	3.871259E-3
2.285000E-8	3.230616E-3
2.290000E-8	2.953118E-3
2.295000E-8	3.076451E-3
2.300000E-8	3.573206E-3
2.305000E-8	4.369728E-3
2.310000E-8	5.443748E-3
2.315000E-8	6.747303E-3
2.320000E-8	8.189606E-3
2.325000E-8	9.685012E-3
2.330000E-8	1.116329E-2
2.335000E-8	1.255934E-2
2.340000E-8	1.378581E-2
2.345000E-8	1.474164E-2
2.350000E-8	1.535316E-2
2.355000E-8	1.562724E-2
2.360000E-8	1.557927E-2
2.365000E-8	1.521270E-2
2.370000E-8	1.453095E-2
2.375000E-8	1.359568E-2
2.380000E-8	1.247883E-2
2.385000E-8	1.119755E-2
2.390000E-8	9.791215E-3
2.395000E-8	8.342059E-3
2.400000E-8	6.937440E-3
2.405000E-8	5.639024E-3
2.410000E-8	4.513616E-3
2.415000E-8	3.643437E-3
2.420000E-8	3.064460E-3
2.425000E-8	2.780110E-3
2.430000E-8	2.814369E-3
2.435000E-8	3.204922E-3
2.440000E-8	3.946629E-3
2.445000E-8	4.970973E-3
2.450000E-8	6.187168E-3
2.455000E-8	7.531834E-3
2.460000E-8	8.963860E-3
2.465000E-8	1.040788E-2
2.470000E-8	1.173884E-2
2.475000E-8	1.287110E-2
2.480000E-8	1.376183E-2
2.485000E-8	1.435623E-2
2.490000E-8	1.458747E-2
2.495000E-8	1.446243E-2
2.500000E-8	1.402049E-2
2.505000E-8	1.328735E-2
2.510000E-8	1.228184E-2
2.515000E-8	1.105366E-2
2.520000E-8	9.666169E-3
2.525000E-8	8.191319E-3
2.530000E-8	6.706192E-3
2.535000E-8	5.296434E-3
2.540000E-8	4.044267E-3
2.545000E-8	3.011358E-3
2.550000E-8	2.242244E-3
2.555000E-8	1.827710E-3
2.560000E-8	1.805442E-3
2.565000E-8	2.166874E-3
2.570000E-8	2.872610E-3
2.575000E-8	3.883250E-3
2.580000E-8	5.120000E-3
2.585000E-8	6.512628E-3
2.590000E-8	8.016599E-3
2.595000E-8	9.532559E-3
2.600000E-8	1.093718E-2
2.605000E-8	1.215680E-2
2.610000E-8	1.315202E-2
2.615000E-8	1.386975E-2
2.620000E-8	1.425688E-2
2.625000E-8	1.430313E-2
2.630000E-8	1.399993E-2
2.635000E-8	1.337471E-2
2.640000E-8	1.247712E-2
2.645000E-8	1.133972E-2
2.650000E-8	1.001047E-2
2.655000E-8	8.590437E-3
2.660000E-8	7.170401E-3
2.665000E-8	5.803467E-3
2.670000E-8	4.556439E-3
2.675000E-8	3.506401E-3
2.680000E-8	2.715018E-3
2.685000E-8	2.213124E-3
2.690000E-8	2.029838E-3
2.695000E-8	2.175439E-3
2.700000E-8	2.636222E-3
2.705000E-8	3.381356E-3
2.710000E-8	4.359450E-3
2.715000E-8	5.507127E-3
2.720000E-8	6.757580E-3
2.725000E-8	8.057709E-3
2.730000E-8	9.352700E-3
2.735000E-8	1.057575E-2
2.740000E-8	1.166518E-2
2.745000E-8	1.255078E-2
2.750000E-8	1.317429E-2
2.755000E-8	1.354258E-2
2.760000E-8	1.364535E-2
2.765000E-8	1.341753E-2
2.770000E-8	1.283855E-2
2.775000E-8	1.198550E-2
2.780000E-8	1.091491E-2
2.785000E-8	9.638762E-3
2.790000E-8	8.234143E-3
2.795000E-8	6.831237E-3
2.800000E-8	5.493423E-3
2.805000E-8	4.236118E-3
2.810000E-8	3.148394E-3
2.815000E-8	2.351873E-3
2.820000E-8	1.891089E-3
2.825000E-8	1.778034E-3
2.830000E-8	1.995579E-3
2.835000E-8	2.519742E-3
2.840000E-8	3.321402E-3
2.845000E-8	4.344034E-3
2.850000E-8	5.513979E-3
2.855000E-8	6.776423E-3
2.860000E-8	8.090255E-3
2.865000E-8	9.371542E-3
2.870000E-8	1.053464E-2
2.875000E-8	1.154014E-2
2.880000E-8	1.233152E-2
2.885000E-8	1.284883E-2
2.890000E-8	1.306295E-2
2.895000E-8	1.299101E-2
2.900000E-8	1.264156E-2
2.905000E-8	1.200949E-2
2.910000E-8	1.113417E-2
2.915000E-8	1.006871E-2
2.920000E-8	8.849092E-3
2.925000E-8	7.521556E-3
2.930000E-8	6.170038E-3
2.935000E-8	4.888752E-3
2.940000E-8	3.744501E-3
2.945000E-8	2.788675E-3
2.950000E-8	2.081227E-3
2.955000E-8	1.687248E-3
2.960000E-8	1.627295E-3
2.965000E-8	1.897941E-3
2.970000E-8	2.463214E-3
2.975000E-8	3.285430E-3
2.980000E-8	4.337182E-3
2.985000E-8	5.548238E-3
2.990000E-8	6.824385E-3
2.995000E-8	8.122801E-3
3.000000E-8	9.404088E-3
3.005000E-8	1.057232E-2
3.010000E-8	1.150930E-2
3.015000E-8	1.218934E-2
3.020000E-8	1.261758E-2
3.025000E-8	1.277175E-2
3.030000E-8	1.263300E-2
3.035000E-8	1.221675E-2
3.040000E-8	1.154528E-2
3.045000E-8	1.066825E-2
3.050000E-8	9.621633E-3
3.055000E-8	8.444836E-3
3.060000E-8	7.202947E-3
3.065000E-8	5.971336E-3
3.070000E-8	4.809956E-3
3.075000E-8	3.759918E-3
3.080000E-8	2.923998E-3
3.085000E-8	2.367289E-3
3.090000E-8	2.105208E-3
3.095000E-8	2.172013E-3
3.100000E-8	2.584834E-3
3.105000E-8	3.290569E-3
3.110000E-8	4.210424E-3
3.115000E-8	5.328980E-3
3.120000E-8	6.598276E-3
3.125000E-8	7.888127E-3
3.130000E-8	9.104322E-3
3.135000E-8	1.024001E-2
3.140000E-8	1.121982E-2
3.145000E-8	1.193069E-2
3.150000E-8	1.234865E-2
3.155000E-8	1.251309E-2
3.160000E-8	1.240346E-2
3.165000E-8	1.202490E-2
3.170000E-8	1.142366E-2
3.175000E-8	1.064769E-2
3.180000E-8	9.722697E-3
3.185000E-8	8.708630E-3
3.190000E-8	7.660305E-3
3.195000E-8	6.596563E-3
3.200000E-8	5.572219E-3
3.205000E-8	4.654078E-3
3.210000E-8	3.860982E-3
3.215000E-8	3.206635E-3
3.220000E-8	2.732148E-3
3.225000E-8	2.475205E-3
3.230000E-8	2.447798E-3
3.235000E-8	2.670481E-3
3.240000E-8	3.156959E-3
3.245000E-8	3.893528E-3
3.250000E-8	4.852780E-3
3.255000E-8	5.928512E-3
3.260000E-8	7.023088E-3
3.265000E-8	8.112524E-3
3.270000E-8	9.177979E-3
3.275000E-8	1.012695E-2
3.280000E-8	1.090121E-2
3.285000E-8	1.146819E-2
3.290000E-8	1.177310E-2
3.295000E-8	1.177652E-2
3.300000E-8	1.148532E-2
3.305000E-8	1.091834E-2
3.310000E-8	1.009612E-2
3.315000E-8	9.099183E-3
3.320000E-8	7.992617E-3
3.325000E-8	6.817534E-3
3.330000E-8	5.652727E-3
3.335000E-8	4.590698E-3
3.340000E-8	3.681122E-3
3.345000E-8	2.949692E-3
3.350000E-8	2.451224E-3
3.355000E-8	2.226827E-3
3.360000E-8	2.281642E-3
3.365000E-8	2.579695E-3
3.370000E-8	3.085015E-3
3.375000E-8	3.795890E-3
3.380000E-8	4.690050E-3
3.385000E-8	5.698977E-3
3.390000E-8	6.764432E-3
3.395000E-8	7.879563E-3
3.400000E-8	8.968999E-3
3.405000E-8	9.936816E-3
3.410000E-8	1.074019E-2
3.415000E-8	1.135000E-2
3.420000E-8	1.171657E-2
3.425000E-8	1.181592E-2
3.430000E-8	1.165662E-2
3.435000E-8	1.124037E-2
3.440000E-8	1.059801E-2
3.445000E-8	9.772372E-3
3.450000E-8	8.813120E-3
3.455000E-8	7.776786E-3
3.460000E-8	6.711331E-3
3.465000E-8	5.673283E-3
3.470000E-8	4.741438E-3
3.475000E-8	3.984314E-3
3.480000E-8	3.424179E-3
3.485000E-8	3.085015E-3
3.490000E-8	2.989090E-3
3.495000E-8	3.129552E-3
3.500000E-8	3.489272E-3
3.505000E-8	4.051119E-3
3.510000E-8	4.779123E-3
3.515000E-8	5.644163E-3
3.520000E-8	6.641100E-3
3.525000E-8	7.716832E-3
3.530000E-8	8.775435E-3
3.535000E-8	9.758669E-3
3.540000E-8	1.062028E-2
3.545000E-8	1.131403E-2
3.550000E-8	1.181078E-2
3.555000E-8	1.209342E-2
3.560000E-8	1.213282E-2
3.565000E-8	1.192384E-2
3.570000E-8	1.148875E-2
3.575000E-8	1.084810E-2
3.580000E-8	1.003445E-2
3.585000E-8	9.116312E-3
3.590000E-8	8.138218E-3
3.595000E-8	7.148133E-3
3.600000E-8	6.214575E-3
3.605000E-8	5.387220E-3
3.610000E-8	4.688337E-3
3.615000E-8	4.165887E-3
3.620000E-8	3.843852E-3
3.625000E-8	3.696539E-3
3.630000E-8	3.698251E-3
3.635000E-8	3.883250E-3
3.640000E-8	4.244683E-3
3.645000E-8	4.739725E-3
3.650000E-8	5.358100E-3
3.655000E-8	6.089530E-3
3.660000E-8	6.872348E-3
3.665000E-8	7.638037E-3
3.670000E-8	8.383170E-3
3.675000E-8	9.107748E-3
3.680000E-8	9.753530E-3
3.685000E-8	1.026570E-2
3.690000E-8	1.060658E-2
3.695000E-8	1.075561E-2
3.700000E-8	1.070422E-2
3.705000E-8	1.045070E-2
3.710000E-8	1.000705E-2
3.715000E-8	9.386959E-3
3.720000E-8	8.641825E-3
3.725000E-8	7.807619E-3
3.730000E-8	6.903181E-3
3.735000E-8	5.990179E-3
3.740000E-8	5.150833E-3
3.745000E-8	4.415978E-3
3.750000E-8	3.818158E-3
3.755000E-8	3.422466E-3
3.760000E-8	3.278579E-3
3.765000E-8	3.359087E-3
3.770000E-8	3.653715E-3
3.775000E-8	4.193294E-3
3.780000E-8	4.953844E-3
3.785000E-8	5.846291E-3
3.790000E-8	6.838089E-3
3.795000E-8	7.896692E-3
3.800000E-8	8.917610E-3
3.805000E-8	9.801492E-3
3.810000E-8	1.055348E-2
3.815000E-8	1.118556E-2
3.820000E-8	1.161551E-2
3.825000E-8	1.176625E-2
3.830000E-8	1.164977E-2
3.835000E-8	1.129005E-2
3.840000E-8	1.069565E-2
3.845000E-8	9.919686E-3
3.850000E-8	9.030665E-3
3.855000E-8	8.064561E-3
3.860000E-8	7.047069E-3
3.865000E-8	6.048419E-3
3.870000E-8	5.137129E-3
3.875000E-8	4.354311E-3
3.880000E-8	3.780473E-3
3.885000E-8	3.475568E-3
3.890000E-8	3.407050E-3
3.895000E-8	3.499549E-3
3.900000E-8	3.765057E-3
3.905000E-8	4.217275E-3
3.910000E-8	4.806530E-3
3.915000E-8	5.484858E-3
3.920000E-8	6.255686E-3
3.925000E-8	7.089893E-3
3.930000E-8	7.915534E-3
3.935000E-8	8.648677E-3
3.940000E-8	9.255061E-3
3.945000E-8	9.710706E-3
3.950000E-8	1.001732E-2
3.955000E-8	1.020404E-2
3.960000E-8	1.028626E-2
3.965000E-8	1.024343E-2
3.970000E-8	1.004987E-2
3.975000E-8	9.727836E-3
3.980000E-8	9.279043E-3
3.985000E-8	8.677797E-3
3.990000E-8	7.960071E-3
3.995000E-8	7.202947E-3
4.000000E-8	6.440684E-3
4.005000E-8	5.709255E-3
4.010000E-8	5.082315E-3
4.015000E-8	4.585560E-3
4.020000E-8	4.217275E-3
4.025000E-8	4.033990E-3
4.030000E-8	4.068249E-3
4.035000E-8	4.272090E-3
4.040000E-8	4.659216E-3
4.045000E-8	5.258749E-3
4.050000E-8	6.003882E-3
4.055000E-8	6.805543E-3
4.060000E-8	7.644888E-3
4.065000E-8	8.468817E-3
4.070000E-8	9.189969E-3
4.075000E-8	9.772372E-3
4.080000E-8	1.021260E-2
4.085000E-8	1.050038E-2
4.090000E-8	1.064598E-2
4.095000E-8	1.063570E-2
4.100000E-8	1.043528E-2
4.105000E-8	1.005672E-2
4.110000E-8	9.537698E-3
4.115000E-8	8.888490E-3
4.120000E-8	8.148496E-3
4.125000E-8	7.393085E-3
4.130000E-8	6.634248E-3
4.135000E-8	5.894253E-3
4.140000E-8	5.263888E-3
4.145000E-8	4.777410E-3
4.150000E-8	4.412552E-3
4.155000E-8	4.217275E-3
4.160000E-8	4.227553E-3
4.165000E-8	4.417690E-3
4.170000E-8	4.768845E-3
4.175000E-8	5.267314E-3
4.180000E-8	5.853143E-3
4.185000E-8	6.478369E-3
4.190000E-8	7.153272E-3
4.195000E-8	7.845304E-3
4.200000E-8	8.485947E-3
4.205000E-8	9.047794E-3
4.210000E-8	9.506865E-3
4.215000E-8	9.844316E-3
4.220000E-8	1.005501E-2
4.225000E-8	1.013552E-2
4.230000E-8	1.006015E-2
4.235000E-8	9.856307E-3
4.240000E-8	9.558254E-3
4.245000E-8	9.142007E-3
4.250000E-8	8.617844E-3
4.255000E-8	8.050858E-3
4.260000E-8	7.471880E-3
4.265000E-8	6.894616E-3
4.270000E-8	6.358463E-3
4.275000E-8	5.887402E-3
4.280000E-8	5.486571E-3
4.285000E-8	5.186805E-3
4.290000E-8	5.024075E-3
4.295000E-8	4.991529E-3
4.300000E-8	5.118287E-3
4.305000E-8	5.411202E-3
4.310000E-8	5.832587E-3
4.315000E-8	6.349898E-3
4.320000E-8	6.959708E-3
4.325000E-8	7.595213E-3
4.330000E-8	8.177616E-3
4.335000E-8	8.712056E-3
4.340000E-8	9.225941E-3
4.345000E-8	9.673021E-3
4.350000E-8	9.988204E-3
4.355000E-8	1.017492E-2
4.360000E-8	1.025029E-2
4.365000E-8	1.019890E-2
4.370000E-8	1.001390E-2
4.375000E-8	9.719271E-3
4.380000E-8	9.315015E-3
4.385000E-8	8.814833E-3
4.390000E-8	8.256412E-3
4.395000E-8	7.660305E-3
4.400000E-8	7.031652E-3
4.405000E-8	6.397861E-3
4.410000E-8	5.789763E-3
4.415000E-8	5.260462E-3
4.420000E-8	4.881900E-3
4.425000E-8	4.666068E-3
4.430000E-8	4.595837E-3
4.435000E-8	4.681485E-3
4.440000E-8	4.941853E-3
4.445000E-8	5.330693E-3
4.450000E-8	5.834300E-3
4.455000E-8	6.468092E-3
4.460000E-8	7.175540E-3
4.465000E-8	7.869285E-3
4.470000E-8	8.535622E-3
4.475000E-8	9.159136E-3
4.480000E-8	9.667882E-3
4.485000E-8	1.001732E-2
4.490000E-8	1.020917E-2
4.495000E-8	1.021603E-2
4.500000E-8	1.003445E-2
4.505000E-8	9.732974E-3
4.510000E-8	9.345848E-3
4.515000E-8	8.857657E-3
4.520000E-8	8.270115E-3
4.525000E-8	7.607203E-3
4.530000E-8	6.923736E-3
4.535000E-8	6.291658E-3
4.540000E-8	5.748653E-3
4.545000E-8	5.299860E-3
4.550000E-8	4.982964E-3
4.555000E-8	4.816808E-3
4.560000E-8	4.791114E-3
4.565000E-8	4.909307E-3
4.570000E-8	5.169676E-3
4.575000E-8	5.553376E-3
4.580000E-8	6.050132E-3
4.585000E-8	6.644526E-3
4.590000E-8	7.292021E-3
4.595000E-8	7.941229E-3
4.600000E-8	8.568168E-3
4.605000E-8	9.131729E-3
4.610000E-8	9.580522E-3
4.615000E-8	9.911121E-3
4.620000E-8	1.012181E-2
4.625000E-8	1.018348E-2
4.630000E-8	1.008413E-2
4.635000E-8	9.849455E-3
4.640000E-8	9.496587E-3
4.645000E-8	9.028952E-3
4.650000E-8	8.477382E-3
4.655000E-8	7.877850E-3
4.660000E-8	7.259475E-3
4.665000E-8	6.656516E-3
4.670000E-8	6.113511E-3
4.675000E-8	5.657866E-3
4.680000E-8	5.298147E-3
4.685000E-8	5.049769E-3
4.690000E-8	4.924724E-3
4.695000E-8	4.938427E-3
4.700000E-8	5.089167E-3
4.705000E-8	5.371804E-3
4.710000E-8	5.764069E-3
4.715000E-8	6.229992E-3
4.720000E-8	6.759293E-3
4.725000E-8	7.334844E-3
4.730000E-8	7.929238E-3
4.735000E-8	8.532197E-3
4.740000E-8	9.116312E-3
4.745000E-8	9.631910E-3
4.750000E-8	1.002246E-2
4.755000E-8	1.026913E-2
4.760000E-8	1.037704E-2
4.765000E-8	1.033422E-2
4.770000E-8	1.013552E-2
4.775000E-8	9.815196E-3
4.780000E-8	9.404088E-3
4.785000E-8	8.924462E-3
4.790000E-8	8.402012E-3
4.795000E-8	7.884701E-3
4.800000E-8	7.393085E-3
4.805000E-8	6.927162E-3
4.810000E-8	6.497212E-3
4.815000E-8	6.163187E-3
4.820000E-8	5.955920E-3
4.825000E-8	5.856569E-3
4.830000E-8	5.849717E-3
4.835000E-8	5.945642E-3
4.840000E-8	6.164900E-3
4.845000E-8	6.474943E-3
4.850000E-8	6.836376E-3
4.855000E-8	7.232067E-3
4.860000E-8	7.641462E-3
4.865000E-8	8.047432E-3
4.870000E-8	8.405438E-3
4.875000E-8	8.679510E-3
4.880000E-8	8.888490E-3
4.885000E-8	9.047794E-3
4.890000E-8	9.131729E-3
4.895000E-8	9.106035E-3
4.900000E-8	8.987841E-3
4.905000E-8	8.770297E-3
4.910000E-8	8.434558E-3
4.915000E-8	7.996043E-3
4.920000E-8	7.504426E-3
4.925000E-8	7.012810E-3
4.930000E-8	6.555452E-3
4.935000E-8	6.140918E-3
4.940000E-8	5.757217E-3
4.945000E-8	5.411202E-3
4.950000E-8	5.140555E-3
4.955000E-8	4.967547E-3
4.960000E-8	4.921298E-3
4.965000E-8	5.025788E-3
4.970000E-8	5.263888E-3
4.975000E-8	5.601339E-3
4.980000E-8	6.015873E-3
4.985000E-8	6.471518E-3
4.990000E-8	6.911746E-3
4.995000E-8	7.348548E-3
5.000000E-8	7.805906E-3
5.005000E-8	8.220440E-3
5.010000E-8	8.523632E-3
5.015000E-8	8.736038E-3
5.020000E-8	8.862796E-3
5.025000E-8	8.874787E-3
5.030000E-8	8.763445E-3
5.035000E-8	8.556178E-3
5.040000E-8	8.270115E-3
5.045000E-8	7.934377E-3
5.050000E-8	7.569519E-3
5.055000E-8	7.166975E-3
5.060000E-8	6.731886E-3
5.065000E-8	6.315639E-3
5.070000E-8	5.938790E-3
5.075000E-8	5.596200E-3
5.080000E-8	5.304999E-3
5.085000E-8	5.099445E-3
5.090000E-8	4.989816E-3
5.095000E-8	4.967547E-3
5.100000E-8	5.010371E-3
5.105000E-8	5.140555E-3
5.110000E-8	5.411202E-3
5.115000E-8	5.812032E-3
5.120000E-8	6.279667E-3
5.125000E-8	6.778136E-3
5.130000E-8	7.312576E-3
5.135000E-8	7.850442E-3
5.140000E-8	8.318078E-3
5.145000E-8	8.698353E-3
5.150000E-8	9.003258E-3
5.155000E-8	9.231080E-3
5.160000E-8	9.352700E-3
5.165000E-8	9.349274E-3
5.170000E-8	9.217377E-3
5.175000E-8	8.972425E-3
5.180000E-8	8.648677E-3
5.185000E-8	8.299235E-3
5.190000E-8	7.936090E-3
5.195000E-8	7.588361E-3
5.200000E-8	7.290308E-3
5.205000E-8	7.065911E-3
5.210000E-8	6.879200E-3
5.215000E-8	6.752441E-3
5.220000E-8	6.706192E-3
5.225000E-8	6.713044E-3
5.230000E-8	6.761006E-3
5.235000E-8	6.860357E-3
5.240000E-8	6.993967E-3
5.245000E-8	7.151559E-3
5.250000E-8	7.343409E-3
5.255000E-8	7.555815E-3
5.260000E-8	7.768221E-3
5.265000E-8	7.992617E-3
5.270000E-8	8.220440E-3
5.275000E-8	8.405438E-3
5.280000E-8	8.549326E-3
5.285000E-8	8.662381E-3
5.290000E-8	8.718908E-3
5.295000E-8	8.712056E-3
5.300000E-8	8.645251E-3
5.305000E-8	8.499650E-3
5.310000E-8	8.266689E-3
5.315000E-8	7.951506E-3
5.320000E-8	7.566093E-3
5.325000E-8	7.144707E-3
5.330000E-8	6.750728E-3
5.335000E-8	6.426981E-3
5.340000E-8	6.176890E-3
5.345000E-8	5.993605E-3
5.350000E-8	5.866846E-3
5.355000E-8	5.805180E-3
5.360000E-8	5.825735E-3
5.365000E-8	5.928512E-3
5.370000E-8	6.098094E-3
5.375000E-8	6.325917E-3
5.380000E-8	6.617118E-3
5.385000E-8	6.951144E-3
5.390000E-8	7.295447E-3
5.395000E-8	7.619194E-3
5.400000E-8	7.901831E-3
5.405000E-8	8.150209E-3
5.410000E-8	8.362614E-3
5.415000E-8	8.552752E-3
5.420000E-8	8.713769E-3
5.425000E-8	8.819972E-3
5.430000E-8	8.842240E-3
5.435000E-8	8.799417E-3
5.440000E-8	8.713769E-3
5.445000E-8	8.563030E-3
5.450000E-8	8.307800E-3
5.455000E-8	7.966923E-3
5.460000E-8	7.598639E-3
5.465000E-8	7.244058E-3
5.470000E-8	6.886052E-3
5.475000E-8	6.519480E-3
5.480000E-8	6.206010E-3
5.485000E-8	6.005595E-3
5.490000E-8	5.907957E-3
5.495000E-8	5.897679E-3
5.500000E-8	5.981614E-3
5.505000E-8	6.134066E-3
5.510000E-8	6.339620E-3
5.515000E-8	6.622257E-3
5.520000E-8	6.975125E-3
5.525000E-8	7.339983E-3
5.530000E-8	7.691138E-3
5.535000E-8	8.032015E-3
5.540000E-8	8.347198E-3
5.545000E-8	8.575020E-3
5.550000E-8	8.712056E-3
5.555000E-8	8.761732E-3
5.560000E-8	8.730899E-3
5.565000E-8	8.621270E-3
5.570000E-8	8.449975E-3
5.575000E-8	8.229004E-3
5.580000E-8	7.946368E-3
5.585000E-8	7.626046E-3
5.590000E-8	7.302298E-3
5.595000E-8	6.983690E-3
5.600000E-8	6.702766E-3
5.605000E-8	6.492073E-3
5.610000E-8	6.324204E-3
5.615000E-8	6.195733E-3
5.620000E-8	6.171751E-3
5.625000E-8	6.235130E-3
5.630000E-8	6.312213E-3
5.635000E-8	6.403000E-3
5.640000E-8	6.572582E-3
5.645000E-8	6.796978E-3
5.650000E-8	7.029939E-3
5.655000E-8	7.273178E-3
5.660000E-8	7.524982E-3
5.665000E-8	7.740814E-3
5.670000E-8	7.913822E-3
5.675000E-8	8.050858E-3
5.680000E-8	8.134792E-3
5.685000E-8	8.158773E-3
5.690000E-8	8.151922E-3
5.695000E-8	8.134792E-3
5.700000E-8	8.083404E-3
5.705000E-8	7.973775E-3
5.710000E-8	7.816183E-3
5.715000E-8	7.634611E-3
5.720000E-8	7.430770E-3
5.725000E-8	7.238919E-3
5.730000E-8	7.072763E-3
5.735000E-8	6.922023E-3
5.740000E-8	6.767858E-3
5.745000E-8	6.630822E-3
5.750000E-8	6.504064E-3
5.755000E-8	6.385870E-3
5.760000E-8	6.312213E-3
5.765000E-8	6.305361E-3
5.770000E-8	6.360176E-3
5.775000E-8	6.486934E-3
5.780000E-8	6.695914E-3
5.785000E-8	6.932301E-3
5.790000E-8	7.153272E-3
5.795000E-8	7.384520E-3
5.800000E-8	7.634611E-3
5.805000E-8	7.855581E-3
5.810000E-8	8.026876E-3
5.815000E-8	8.158773E-3
5.820000E-8	8.229004E-3
5.825000E-8	8.220440E-3
5.830000E-8	8.133079E-3
5.835000E-8	7.999469E-3
5.840000E-8	7.824748E-3
5.845000E-8	7.612342E-3
5.850000E-8	7.369103E-3
5.855000E-8	7.120726E-3
5.860000E-8	6.891190E-3
5.865000E-8	6.699340E-3
5.870000E-8	6.538323E-3
5.875000E-8	6.401287E-3
5.880000E-8	6.303648E-3
5.885000E-8	6.267677E-3
5.890000E-8	6.295084E-3
5.895000E-8	6.360176E-3
5.900000E-8	6.485221E-3
5.905000E-8	6.671933E-3
5.910000E-8	6.870635E-3
5.915000E-8	7.055634E-3
5.920000E-8	7.266326E-3
5.925000E-8	7.497575E-3
5.930000E-8	7.704842E-3
5.935000E-8	7.874424E-3
5.940000E-8	8.025163E-3
5.945000E-8	8.134792E-3
5.950000E-8	8.198171E-3
5.955000E-8	8.244421E-3
5.960000E-8	8.258124E-3
5.965000E-8	8.201597E-3
5.970000E-8	8.079978E-3
5.975000E-8	7.929238E-3
5.980000E-8	7.761369E-3
5.985000E-8	7.583222E-3
5.990000E-8	7.398224E-3
5.995000E-8	7.204660E-3
6.000000E-8	7.002532E-3
6.005000E-8	6.826098E-3
6.010000E-8	6.658229E-3
6.015000E-8	6.516054E-3
6.020000E-8	6.442397E-3
6.025000E-8	6.428694E-3
6.030000E-8	6.454388E-3
6.035000E-8	6.533184E-3
6.040000E-8	6.690775E-3
6.045000E-8	6.867209E-3
6.050000E-8	7.028226E-3
6.055000E-8	7.197808E-3
6.060000E-8	7.372529E-3
6.065000E-8	7.528408E-3
6.070000E-8	7.687712E-3
6.075000E-8	7.859007E-3
6.080000E-8	8.001182E-3
6.085000E-8	8.093681E-3
6.090000E-8	8.134792E-3
6.095000E-8	8.129653E-3
6.100000E-8	8.090255E-3
6.105000E-8	8.035441E-3
6.110000E-8	7.958358E-3
6.115000E-8	7.824748E-3
6.120000E-8	7.667157E-3
6.125000E-8	7.512991E-3
6.130000E-8	7.346835E-3
6.135000E-8	7.163549E-3
6.140000E-8	6.997393E-3
6.145000E-8	6.851793E-3
6.150000E-8	6.719895E-3
6.155000E-8	6.627396E-3
6.160000E-8	6.608554E-3
6.165000E-8	6.635961E-3
6.170000E-8	6.675359E-3
6.175000E-8	6.738738E-3
6.180000E-8	6.820959E-3
6.185000E-8	6.911746E-3
6.190000E-8	7.004245E-3
6.195000E-8	7.096744E-3
6.200000E-8	7.182392E-3
6.205000E-8	7.247484E-3
6.210000E-8	7.293734E-3
6.215000E-8	7.327993E-3
6.220000E-8	7.353687E-3
6.225000E-8	7.346835E-3
6.230000E-8	7.324567E-3
6.235000E-8	7.316002E-3
6.240000E-8	7.314289E-3
6.245000E-8	7.293734E-3
6.250000E-8	7.266326E-3
6.255000E-8	7.259475E-3
6.260000E-8	7.256049E-3
6.265000E-8	7.220077E-3
6.270000E-8	7.165262E-3
6.275000E-8	7.131003E-3
6.280000E-8	7.115587E-3
6.285000E-8	7.093318E-3
6.290000E-8	7.057347E-3
6.295000E-8	7.033365E-3
6.300000E-8	7.043643E-3
6.305000E-8	7.083041E-3
6.310000E-8	7.141281E-3
6.315000E-8	7.216651E-3
6.320000E-8	7.316002E-3
6.325000E-8	7.420492E-3
6.330000E-8	7.507852E-3
6.335000E-8	7.548963E-3
6.340000E-8	7.562667E-3
6.345000E-8	7.560954E-3
6.350000E-8	7.526695E-3
6.355000E-8	7.441047E-3
6.360000E-8	7.351974E-3
6.365000E-8	7.280030E-3
6.370000E-8	7.199521E-3
6.375000E-8	7.107022E-3
6.380000E-8	7.028226E-3
6.385000E-8	6.951144E-3
6.390000E-8	6.858644E-3
6.395000E-8	6.786700E-3
6.400000E-8	6.754154E-3
6.405000E-8	6.707905E-3
6.410000E-8	6.661655E-3
6.415000E-8	6.670220E-3
6.420000E-8	6.718182E-3
6.425000E-8	6.762719E-3
6.430000E-8	6.820959E-3
6.435000E-8	6.901468E-3
6.440000E-8	6.999106E-3
6.445000E-8	7.122439E-3
6.450000E-8	7.254336E-3
6.455000E-8	7.372529E-3
6.460000E-8	7.480445E-3
6.465000E-8	7.578083E-3
6.470000E-8	7.648314E-3
6.475000E-8	7.679147E-3
6.480000E-8	7.663731E-3
6.485000E-8	7.600352E-3
6.490000E-8	7.526695E-3
6.495000E-8	7.459890E-3
6.500000E-8	7.375955E-3
6.505000E-8	7.268039E-3
6.510000E-8	7.168688E-3
6.515000E-8	7.060772E-3
6.520000E-8	6.918598E-3
6.525000E-8	6.776423E-3
6.530000E-8	6.644526E-3
6.535000E-8	6.502351E-3
6.540000E-8	6.379018E-3
6.545000E-8	6.310500E-3
6.550000E-8	6.271102E-3
6.555000E-8	6.216288E-3
6.560000E-8	6.173464E-3
6.565000E-8	6.180316E-3
6.570000E-8	6.233418E-3
6.575000E-8	6.324204E-3
6.580000E-8	6.473231E-3
6.585000E-8	6.668507E-3
6.590000E-8	6.877487E-3
6.595000E-8	7.100170E-3
6.600000E-8	7.336557E-3
6.605000E-8	7.562667E-3
6.610000E-8	7.761369E-3
6.615000E-8	7.912109E-3
6.620000E-8	8.004608E-3
6.625000E-8	8.049145E-3
6.630000E-8	8.037154E-3
6.635000E-8	7.946368E-3
6.640000E-8	7.787063E-3
6.645000E-8	7.608916E-3
6.650000E-8	7.439334E-3
6.655000E-8	7.271465E-3
6.660000E-8	7.131003E-3
6.665000E-8	7.026513E-3
6.670000E-8	6.944292E-3
6.675000E-8	6.877487E-3
6.680000E-8	6.848367E-3
6.685000E-8	6.831237E-3
6.690000E-8	6.805543E-3
6.695000E-8	6.802117E-3
6.700000E-8	6.834663E-3
6.705000E-8	6.856931E-3
6.710000E-8	6.868922E-3
6.715000E-8	6.887764E-3
6.720000E-8	6.918598E-3
6.725000E-8	6.968273E-3
6.730000E-8	7.052208E-3
6.735000E-8	7.144707E-3
6.740000E-8	7.230354E-3
6.745000E-8	7.346835E-3
6.750000E-8	7.471880E-3
6.755000E-8	7.564380E-3
6.760000E-8	7.619194E-3
6.765000E-8	7.665444E-3
6.770000E-8	7.680860E-3
6.775000E-8	7.641462E-3
6.780000E-8	7.571232E-3
6.785000E-8	7.478732E-3
6.790000E-8	7.367390E-3
6.795000E-8	7.256049E-3
6.800000E-8	7.184105E-3
6.805000E-8	7.139568E-3
6.810000E-8	7.098457E-3
6.815000E-8	7.057347E-3
6.820000E-8	7.031652E-3
6.825000E-8	6.997393E-3
6.830000E-8	6.939153E-3
6.835000E-8	6.868922E-3
6.840000E-8	6.812395E-3
6.845000E-8	6.778136E-3
6.850000E-8	6.779849E-3
6.855000E-8	6.819246E-3
6.860000E-8	6.887764E-3
6.865000E-8	6.987116E-3
6.870000E-8	7.105309E-3
6.875000E-8	7.206373E-3
6.880000E-8	7.281743E-3
6.885000E-8	7.324567E-3
6.890000E-8	7.327993E-3
6.895000E-8	7.288595E-3
6.900000E-8	7.214938E-3
6.905000E-8	7.129290E-3
6.910000E-8	7.048782E-3
6.915000E-8	6.978551E-3
6.920000E-8	6.886052E-3
6.925000E-8	6.778136E-3
6.930000E-8	6.694201E-3
6.935000E-8	6.658229E-3
6.940000E-8	6.649664E-3
6.945000E-8	6.683923E-3
6.950000E-8	6.767858E-3
6.955000E-8	6.856931E-3
6.960000E-8	6.935727E-3
6.965000E-8	7.014523E-3
6.970000E-8	7.084754E-3
6.975000E-8	7.134429E-3
6.980000E-8	7.187531E-3
6.985000E-8	7.237206E-3
6.990000E-8	7.271465E-3
6.995000E-8	7.309150E-3
7.000000E-8	7.362252E-3
7.005000E-8	7.423918E-3
7.010000E-8	7.485584E-3
7.015000E-8	7.535260E-3
7.020000E-8	7.571232E-3
7.025000E-8	7.598639E-3
7.030000E-8	7.607203E-3
7.035000E-8	7.588361E-3
7.040000E-8	7.552389E-3
7.045000E-8	7.504426E-3
7.050000E-8	7.415353E-3
7.055000E-8	7.314289E-3
7.060000E-8	7.230354E-3
7.065000E-8	7.148133E-3
7.070000E-8	7.052208E-3
7.075000E-8	6.990541E-3
7.080000E-8	6.995680E-3
7.085000E-8	7.021375E-3
7.090000E-8	7.050495E-3
7.095000E-8	7.089893E-3
7.100000E-8	7.124152E-3
7.105000E-8	7.154985E-3
7.110000E-8	7.208086E-3
7.115000E-8	7.290308E-3
7.120000E-8	7.386233E-3
7.125000E-8	7.483871E-3
7.130000E-8	7.557528E-3
7.135000E-8	7.578083E-3
7.140000E-8	7.560954E-3
7.145000E-8	7.536973E-3
7.150000E-8	7.492436E-3
7.155000E-8	7.399937E-3
7.160000E-8	7.278317E-3
7.165000E-8	7.153272E-3
7.170000E-8	7.041930E-3
7.175000E-8	6.934014E-3
7.180000E-8	6.820959E-3
7.185000E-8	6.707905E-3
7.190000E-8	6.599989E-3
7.195000E-8	6.497212E-3
7.200000E-8	6.414990E-3
7.205000E-8	6.385870E-3
7.210000E-8	6.363602E-3
7.215000E-8	6.322491E-3
7.220000E-8	6.300223E-3
7.225000E-8	6.319065E-3
7.230000E-8	6.353324E-3
7.235000E-8	6.411564E-3
7.240000E-8	6.531471E-3
7.245000E-8	6.677072E-3
7.250000E-8	6.815821E-3
7.255000E-8	6.978551E-3
7.260000E-8	7.156698E-3
7.265000E-8	7.304011E-3
7.270000E-8	7.420492E-3
7.275000E-8	7.536973E-3
7.280000E-8	7.634611E-3
7.285000E-8	7.704842E-3
7.290000E-8	7.764795E-3
7.295000E-8	7.799054E-3
7.300000E-8	7.790489E-3
7.305000E-8	7.752804E-3
7.310000E-8	7.699703E-3
7.315000E-8	7.627759E-3
7.320000E-8	7.550676E-3
7.325000E-8	7.483871E-3
7.330000E-8	7.401649E-3
7.335000E-8	7.300585E-3
7.340000E-8	7.218364E-3
7.345000E-8	7.151559E-3
7.350000E-8	7.083041E-3
7.355000E-8	7.007671E-3
7.360000E-8	6.923736E-3
7.365000E-8	6.817534E-3
7.370000E-8	6.719895E-3
7.375000E-8	6.663368E-3
7.380000E-8	6.651377E-3
7.385000E-8	6.675359E-3
7.390000E-8	6.764432E-3
7.395000E-8	6.916885E-3
7.400000E-8	7.096744E-3
7.405000E-8	7.266326E-3
7.410000E-8	7.446186E-3
7.415000E-8	7.638037E-3
7.420000E-8	7.795628E-3
7.425000E-8	7.879563E-3
7.430000E-8	7.922386E-3
7.435000E-8	7.934377E-3
7.440000E-8	7.893266E-3
7.445000E-8	7.795628E-3
7.450000E-8	7.672296E-3
7.455000E-8	7.530121E-3
7.460000E-8	7.346835E-3
7.465000E-8	7.153272E-3
7.470000E-8	6.993967E-3
7.475000E-8	6.868922E-3
7.480000E-8	6.784987E-3
7.485000E-8	6.749015E-3
7.490000E-8	6.725034E-3
7.495000E-8	6.704479E-3
7.500000E-8	6.754154E-3
7.505000E-8	6.853505E-3
7.510000E-8	6.925449E-3
7.515000E-8	6.980264E-3
7.520000E-8	7.064198E-3
7.525000E-8	7.124152E-3
7.530000E-8	7.127577E-3
7.535000E-8	7.127577E-3
7.540000E-8	7.165262E-3
7.545000E-8	7.225216E-3
7.550000E-8	7.293734E-3
7.555000E-8	7.351974E-3
7.560000E-8	7.384520E-3
7.565000E-8	7.413640E-3
7.570000E-8	7.442760E-3
7.575000E-8	7.454751E-3
7.580000E-8	7.458177E-3
7.585000E-8	7.470167E-3
7.590000E-8	7.451325E-3
7.595000E-8	7.379381E-3
7.600000E-8	7.290308E-3
7.605000E-8	7.197808E-3
7.610000E-8	7.096744E-3
7.615000E-8	7.000819E-3
7.620000E-8	6.913459E-3
7.625000E-8	6.820959E-3
7.630000E-8	6.743877E-3
7.635000E-8	6.713044E-3
7.640000E-8	6.699340E-3
7.645000E-8	6.659942E-3
7.650000E-8	6.613692E-3
7.655000E-8	6.598276E-3
7.660000E-8	6.589711E-3
7.665000E-8	6.579433E-3
7.670000E-8	6.593137E-3
7.675000E-8	6.644526E-3
7.680000E-8	6.689062E-3
7.685000E-8	6.690775E-3
7.690000E-8	6.685636E-3
7.695000E-8	6.718182E-3
7.700000E-8	6.790126E-3
7.705000E-8	6.875774E-3
7.710000E-8	6.957995E-3
7.715000E-8	7.043643E-3
7.720000E-8	7.154985E-3
7.725000E-8	7.285169E-3
7.730000E-8	7.382807E-3
7.735000E-8	7.444473E-3
7.740000E-8	7.514704E-3
7.745000E-8	7.560954E-3
7.750000E-8	7.548963E-3
7.755000E-8	7.511278E-3
7.760000E-8	7.475306E-3
7.765000E-8	7.396511E-3
7.770000E-8	7.286882E-3
7.775000E-8	7.197808E-3
7.780000E-8	7.132716E-3
7.785000E-8	7.083041E-3
7.790000E-8	7.076189E-3
7.795000E-8	7.124152E-3
7.800000E-8	7.185818E-3
7.805000E-8	7.252623E-3
7.810000E-8	7.307437E-3
7.815000E-8	7.331419E-3
7.820000E-8	7.339983E-3
7.825000E-8	7.358826E-3
7.830000E-8	7.334844E-3
7.835000E-8	7.256049E-3
7.840000E-8	7.185818E-3
7.845000E-8	7.119013E-3
7.850000E-8	6.997393E-3
7.855000E-8	6.863783E-3
7.860000E-8	6.788413E-3
7.865000E-8	6.757580E-3
7.870000E-8	6.738738E-3
7.875000E-8	6.757580E-3
7.880000E-8	6.796978E-3
7.885000E-8	6.846654E-3
7.890000E-8	6.916885E-3
7.895000E-8	6.988829E-3
7.900000E-8	7.033365E-3
7.905000E-8	7.081328E-3
7.910000E-8	7.153272E-3
7.915000E-8	7.218364E-3
7.920000E-8	7.276604E-3
7.925000E-8	7.370816E-3
7.930000E-8	7.475306E-3
7.935000E-8	7.542111E-3
7.940000E-8	7.564380E-3
7.945000E-8	7.557528E-3
7.950000E-8	7.514704E-3
7.955000E-8	7.434196E-3
7.960000E-8	7.358826E-3
7.965000E-8	7.278317E-3
7.970000E-8	7.165262E-3
7.975000E-8	7.050495E-3
7.980000E-8	6.973412E-3
7.985000E-8	6.906607E-3
7.990000E-8	6.848367E-3
7.995000E-8	6.844941E-3
8.000000E-8	6.920311E-3
8.005000E-8	6.995680E-3
8.010000E-8	7.023088E-3
8.015000E-8	7.005958E-3
8.020000E-8	6.971699E-3
8.025000E-8	6.918598E-3
8.030000E-8	6.841515E-3
8.035000E-8	6.766145E-3
8.040000E-8	6.738738E-3
8.045000E-8	6.742164E-3
8.050000E-8	6.740451E-3
8.055000E-8	6.757580E-3
8.060000E-8	6.822672E-3
8.065000E-8	6.911746E-3
8.070000E-8	7.014523E-3
8.075000E-8	7.144707E-3
8.080000E-8	7.257762E-3
8.085000E-8	7.309150E-3
8.090000E-8	7.331419E-3
8.095000E-8	7.338270E-3
8.100000E-8	7.293734E-3
8.105000E-8	7.201234E-3
8.110000E-8	7.108735E-3
8.115000E-8	7.005958E-3
8.120000E-8	6.887764E-3
8.125000E-8	6.764432E-3
8.130000E-8	6.644526E-3
8.135000E-8	6.528045E-3
8.140000E-8	6.444110E-3
8.145000E-8	6.394435E-3
8.150000E-8	6.367028E-3
8.155000E-8	6.363602E-3
8.160000E-8	6.408138E-3
8.165000E-8	6.480082E-3
8.170000E-8	6.555452E-3
8.175000E-8	6.656516E-3
8.180000E-8	6.796978E-3
8.185000E-8	6.925449E-3
8.190000E-8	6.988829E-3
8.195000E-8	7.007671E-3
8.200000E-8	6.997393E-3
8.205000E-8	6.944292E-3
8.210000E-8	6.844941E-3
8.215000E-8	6.723321E-3
8.220000E-8	6.596563E-3
8.225000E-8	6.481795E-3
8.230000E-8	6.396148E-3
8.235000E-8	6.349898E-3
8.240000E-8	6.349898E-3
8.245000E-8	6.394435E-3
8.250000E-8	6.459527E-3
8.255000E-8	6.553739E-3
8.260000E-8	6.709618E-3
8.265000E-8	6.877487E-3
8.270000E-8	6.992254E-3
8.275000E-8	7.064198E-3
8.280000E-8	7.134429E-3
8.285000E-8	7.202947E-3
8.290000E-8	7.252623E-3
8.295000E-8	7.278317E-3
8.300000E-8	7.259475E-3
8.305000E-8	7.201234E-3
8.310000E-8	7.132716E-3
8.315000E-8	7.038504E-3
8.320000E-8	6.913459E-3
8.325000E-8	6.798691E-3
8.330000E-8	6.709618E-3
8.335000E-8	6.598276E-3
8.340000E-8	6.473231E-3
8.345000E-8	6.391009E-3
8.350000E-8	6.349898E-3
8.355000E-8	6.300223E-3
8.360000E-8	6.247121E-3
8.365000E-8	6.195733E-3
8.370000E-8	6.125502E-3
8.375000E-8	6.058697E-3
8.380000E-8	6.026151E-3
8.385000E-8	6.033002E-3
8.390000E-8	6.050132E-3
8.395000E-8	6.077539E-3
8.400000E-8	6.104946E-3
8.405000E-8	6.099807E-3
8.410000E-8	6.063835E-3
8.415000E-8	6.053558E-3
8.420000E-8	6.067261E-3
8.425000E-8	6.051845E-3
8.430000E-8	6.009021E-3
8.435000E-8	5.990179E-3
8.440000E-8	5.998743E-3
8.445000E-8	6.014160E-3
8.450000E-8	6.053558E-3
8.455000E-8	6.142631E-3
8.460000E-8	6.283093E-3
8.465000E-8	6.459527E-3
8.470000E-8	6.653090E-3
8.475000E-8	6.836376E-3
8.480000E-8	6.988829E-3
8.485000E-8	7.105309E-3
8.490000E-8	7.173827E-3
8.495000E-8	7.170401E-3
8.500000E-8	7.091606E-3
8.505000E-8	6.961421E-3
8.510000E-8	6.798691E-3
8.515000E-8	6.635961E-3
8.520000E-8	6.486934E-3
8.525000E-8	6.355037E-3
8.530000E-8	6.238556E-3
8.535000E-8	6.147770E-3
8.540000E-8	6.116937E-3
8.545000E-8	6.149483E-3
8.550000E-8	6.223140E-3
8.555000E-8	6.336195E-3
8.560000E-8	6.507490E-3
8.565000E-8	6.718182E-3
8.570000E-8	6.891190E-3
8.575000E-8	6.981977E-3
8.580000E-8	7.026513E-3
8.585000E-8	7.053921E-3
8.590000E-8	7.060772E-3
8.595000E-8	7.048782E-3
8.600000E-8	7.040217E-3
8.605000E-8	7.035078E-3
8.610000E-8	6.999106E-3
8.615000E-8	6.918598E-3
8.620000E-8	6.827811E-3
8.625000E-8	6.740451E-3
8.630000E-8	6.642813E-3
8.635000E-8	6.540036E-3
8.640000E-8	6.469805E-3
8.645000E-8	6.437259E-3
8.650000E-8	6.414990E-3
8.655000E-8	6.394435E-3
8.660000E-8	6.389296E-3
8.665000E-8	6.408138E-3
8.670000E-8	6.447536E-3
8.675000E-8	6.490360E-3
8.680000E-8	6.533184E-3
8.685000E-8	6.598276E-3
8.690000E-8	6.661655E-3
8.695000E-8	6.689062E-3
8.700000E-8	6.694201E-3
8.705000E-8	6.713044E-3
8.710000E-8	6.747303E-3
8.715000E-8	6.796978E-3
8.720000E-8	6.862070E-3
8.725000E-8	6.889477E-3
8.730000E-8	6.868922E-3
8.735000E-8	6.856931E-3
8.740000E-8	6.863783E-3
8.745000E-8	6.829524E-3
8.750000E-8	6.757580E-3
8.755000E-8	6.701053E-3
8.760000E-8	6.642813E-3
8.765000E-8	6.555452E-3
8.770000E-8	6.469805E-3
8.775000E-8	6.404713E-3
8.780000E-8	6.355037E-3
8.785000E-8	6.339620E-3
8.790000E-8	6.368741E-3
8.795000E-8	6.423555E-3
8.800000E-8	6.517767E-3
8.805000E-8	6.653090E-3
8.810000E-8	6.783274E-3
8.815000E-8	6.899755E-3
8.820000E-8	7.043643E-3
8.825000E-8	7.199521E-3
8.830000E-8	7.300585E-3
8.835000E-8	7.327993E-3
8.840000E-8	7.302298E-3
8.845000E-8	7.249197E-3
8.850000E-8	7.187531E-3
8.855000E-8	7.117300E-3
8.860000E-8	7.026513E-3
8.865000E-8	6.915172E-3
8.870000E-8	6.803830E-3
8.875000E-8	6.704479E-3
8.880000E-8	6.620544E-3
8.885000E-8	6.558878E-3
8.890000E-8	6.528045E-3
8.895000E-8	6.524619E-3
8.900000E-8	6.531471E-3
8.905000E-8	6.533184E-3
8.910000E-8	6.531471E-3
8.915000E-8	6.531471E-3
8.920000E-8	6.553739E-3
8.925000E-8	6.564017E-3
8.930000E-8	6.548600E-3
8.935000E-8	6.538323E-3
8.940000E-8	6.574295E-3
8.945000E-8	6.615405E-3
8.950000E-8	6.610267E-3
8.955000E-8	6.591424E-3
8.960000E-8	6.613692E-3
8.965000E-8	6.673646E-3
8.970000E-8	6.738738E-3
8.975000E-8	6.779849E-3
8.980000E-8	6.810682E-3
8.985000E-8	6.863783E-3
8.990000E-8	6.927162E-3
8.995000E-8	6.971699E-3
9.000000E-8	6.981977E-3
9.005000E-8	6.959708E-3
9.010000E-8	6.886052E-3
9.015000E-8	6.786700E-3
9.020000E-8	6.707905E-3
9.025000E-8	6.654803E-3
9.030000E-8	6.617118E-3
9.035000E-8	6.611979E-3
9.040000E-8	6.641100E-3
9.045000E-8	6.701053E-3
9.050000E-8	6.796978E-3
9.055000E-8	6.913459E-3
9.060000E-8	7.028226E-3
9.065000E-8	7.168688E-3
9.070000E-8	7.339983E-3
9.075000E-8	7.480445E-3
9.080000E-8	7.576370E-3
9.085000E-8	7.670583E-3
9.090000E-8	7.752804E-3
9.095000E-8	7.773360E-3
9.100000E-8	7.739101E-3
9.105000E-8	7.685999E-3
9.110000E-8	7.634611E-3
9.115000E-8	7.581509E-3
9.120000E-8	7.538685E-3
9.125000E-8	7.519843E-3
9.130000E-8	7.494149E-3
9.135000E-8	7.430770E-3
9.140000E-8	7.334844E-3
9.145000E-8	7.250910E-3
9.150000E-8	7.180679E-3
9.155000E-8	7.115587E-3
9.160000E-8	7.062485E-3
9.165000E-8	7.007671E-3
9.170000E-8	6.932301E-3
9.175000E-8	6.875774E-3
9.180000E-8	6.862070E-3
9.185000E-8	6.856931E-3
9.190000E-8	6.822672E-3
9.195000E-8	6.766145E-3
9.200000E-8	6.709618E-3
9.205000E-8	6.641100E-3
9.210000E-8	6.522906E-3
9.215000E-8	6.367028E-3
9.220000E-8	6.229992E-3
9.225000E-8	6.116937E-3
9.230000E-8	6.007308E-3
9.235000E-8	5.909670E-3
9.240000E-8	5.853143E-3
9.245000E-8	5.827448E-3
9.250000E-8	5.841152E-3
9.255000E-8	5.928512E-3
9.260000E-8	6.050132E-3
9.265000E-8	6.161474E-3
9.270000E-8	6.264251E-3
9.275000E-8	6.372166E-3
9.280000E-8	6.478369E-3
9.285000E-8	6.581146E-3
9.290000E-8	6.671933E-3
9.295000E-8	6.733599E-3
9.300000E-8	6.762719E-3
9.305000E-8	6.779849E-3
9.310000E-8	6.790126E-3
9.315000E-8	6.814108E-3
9.320000E-8	6.855218E-3
9.325000E-8	6.868922E-3
9.330000E-8	6.850080E-3
9.335000E-8	6.856931E-3
9.340000E-8	6.901468E-3
9.345000E-8	6.940866E-3
9.350000E-8	6.964847E-3
9.355000E-8	7.012810E-3
9.360000E-8	7.074476E-3
9.365000E-8	7.093318E-3
9.370000E-8	7.055634E-3
9.375000E-8	6.983690E-3
9.380000E-8	6.892903E-3
9.385000E-8	6.783274E-3
9.390000E-8	6.683923E-3
9.395000E-8	6.603415E-3
9.400000E-8	6.538323E-3
9.405000E-8	6.478369E-3
9.410000E-8	6.423555E-3
9.415000E-8	6.397861E-3
9.420000E-8	6.428694E-3
9.425000E-8	6.516054E-3
9.430000E-8	6.637674E-3
9.435000E-8	6.762719E-3
9.440000E-8	6.865496E-3
9.445000E-8	6.946005E-3
9.450000E-8	7.005958E-3
9.455000E-8	7.064198E-3
9.460000E-8	7.071050E-3
9.465000E-8	6.999106E-3
9.470000E-8	6.874061E-3
9.475000E-8	6.740451E-3
9.480000E-8	6.586285E-3
9.485000E-8	6.420129E-3
9.490000E-8	6.281380E-3
9.495000E-8	6.190594E-3
9.500000E-8	6.140918E-3
9.505000E-8	6.130641E-3
9.510000E-8	6.152909E-3
9.515000E-8	6.206010E-3
9.520000E-8	6.312213E-3
9.525000E-8	6.468092E-3
9.530000E-8	6.625683E-3
9.535000E-8	6.766145E-3
9.540000E-8	6.911746E-3
9.545000E-8	7.031652E-3
9.550000E-8	7.110448E-3
9.555000E-8	7.166975E-3
9.560000E-8	7.196095E-3
9.565000E-8	7.148133E-3
9.570000E-8	7.031652E-3
9.575000E-8	6.889477E-3
9.580000E-8	6.742164E-3
9.585000E-8	6.594850E-3
9.590000E-8	6.468092E-3
9.595000E-8	6.384157E-3
9.600000E-8	6.356750E-3
9.605000E-8	6.377305E-3
9.610000E-8	6.428694E-3
9.615000E-8	6.502351E-3
9.620000E-8	6.610267E-3
9.625000E-8	6.733599E-3
9.630000E-8	6.819246E-3
9.635000E-8	6.874061E-3
9.640000E-8	6.915172E-3
9.645000E-8	6.940866E-3
9.650000E-8	6.928875E-3
9.655000E-8	6.894616E-3
9.660000E-8	6.843228E-3
9.665000E-8	6.771284E-3
9.670000E-8	6.699340E-3
9.675000E-8	6.656516E-3
9.680000E-8	6.670220E-3
9.685000E-8	6.738738E-3
9.690000E-8	6.844941E-3
9.695000E-8	6.951144E-3
9.700000E-8	7.029939E-3
9.705000E-8	7.065911E-3
9.710000E-8	7.057347E-3
9.715000E-8	7.012810E-3
9.720000E-8	6.937440E-3
9.725000E-8	6.844941E-3
9.730000E-8	6.755867E-3
9.735000E-8	6.689062E-3
9.740000E-8	6.658229E-3
9.745000E-8	6.668507E-3
9.750000E-8	6.713044E-3
9.755000E-8	6.812395E-3
9.760000E-8	6.961421E-3
9.765000E-8	7.098457E-3
9.770000E-8	7.197808E-3
9.775000E-8	7.276604E-3
9.780000E-8	7.334844E-3
9.785000E-8	7.326280E-3
9.790000E-8	7.245771E-3
9.795000E-8	7.149846E-3
9.800000E-8	7.067624E-3
9.805000E-8	6.969986E-3
9.810000E-8	6.844941E-3
9.815000E-8	6.733599E-3
9.820000E-8	6.689062E-3
9.825000E-8	6.702766E-3
9.830000E-8	6.740451E-3
9.835000E-8	6.796978E-3
9.840000E-8	6.880913E-3
9.845000E-8	6.952857E-3
9.850000E-8	6.987116E-3
9.855000E-8	7.004245E-3
9.860000E-8	7.017949E-3
9.865000E-8	7.021375E-3
9.870000E-8	6.999106E-3
9.875000E-8	6.949431E-3
9.880000E-8	6.877487E-3
9.885000E-8	6.795265E-3
9.890000E-8	6.718182E-3
9.895000E-8	6.671933E-3
9.900000E-8	6.665081E-3
9.905000E-8	6.689062E-3
9.910000E-8	6.704479E-3
9.915000E-8	6.716469E-3
9.920000E-8	6.728460E-3
9.925000E-8	6.749015E-3
9.930000E-8	6.784987E-3
9.935000E-8	6.817534E-3
9.940000E-8	6.836376E-3
9.945000E-8	6.832950E-3
9.950000E-8	6.808969E-3
9.955000E-8	6.761006E-3
9.960000E-8	6.677072E-3
9.965000E-8	6.565730E-3
9.970000E-8	6.456101E-3
9.975000E-8	6.372166E-3
9.980000E-8	6.312213E-3
9.985000E-8	6.260825E-3
9.990000E-8	6.218001E-3
9.995000E-8	6.211149E-3
1.000000E-7	6.245408E-3
1.000500E-7	6.301936E-3
1.001000E-7	6.389296E-3
1.001500E-7	6.504064E-3
1.002000E-7	6.653090E-3
1.002500E-7	6.826098E-3
1.003000E-7	6.975125E-3
1.003500E-7	7.059059E-3
1.004000E-7	7.112161E-3
1.004500E-7	7.131003E-3
1.005000E-7	7.091606E-3
1.005500E-7	7.023088E-3
1.006000E-7	6.971699E-3
1.006500E-7	6.939153E-3
1.007000E-7	6.906607E-3
1.007500E-7	6.899755E-3
1.008000E-7	6.920311E-3
1.008500E-7	6.963134E-3
1.009000E-7	7.040217E-3
1.009500E-7	7.151559E-3
1.010000E-7	7.257762E-3
1.010500E-7	7.363965E-3
1.011000E-7	7.483871E-3
1.011500E-7	7.571232E-3
1.012000E-7	7.581509E-3
1.012500E-7	7.531834E-3
1.013000E-7	7.441047E-3
1.013500E-7	7.312576E-3
1.014000E-7	7.161836E-3
1.014500E-7	7.029939E-3
1.015000E-7	6.935727E-3
1.015500E-7	6.856931E-3
1.016000E-7	6.793552E-3
1.016500E-7	6.755867E-3
1.017000E-7	6.743877E-3
1.017500E-7	6.738738E-3
1.018000E-7	6.733599E-3
1.018500E-7	6.721608E-3
1.019000E-7	6.697627E-3
1.019500E-7	6.656516E-3
1.020000E-7	6.610267E-3
1.020500E-7	6.548600E-3
1.021000E-7	6.447536E-3
1.021500E-7	6.312213E-3
1.022000E-7	6.185455E-3
1.022500E-7	6.098094E-3
1.023000E-7	6.029576E-3
1.023500E-7	5.976475E-3
1.024000E-7	5.973049E-3
1.024500E-7	6.005595E-3
1.025000E-7	6.058697E-3
1.025500E-7	6.127215E-3
1.026000E-7	6.221427E-3
1.026500E-7	6.339620E-3
1.027000E-7	6.469805E-3
1.027500E-7	6.611979E-3
1.028000E-7	6.752441E-3
1.028500E-7	6.882626E-3
1.029000E-7	6.987116E-3
1.029500E-7	7.053921E-3
1.030000E-7	7.064198E-3
1.030500E-7	7.029939E-3
1.031000E-7	6.964847E-3
1.031500E-7	6.884339E-3
1.032000E-7	6.791839E-3
1.032500E-7	6.692488E-3
1.033000E-7	6.572582E-3
1.033500E-7	6.425268E-3
1.034000E-7	6.283093E-3
1.034500E-7	6.183742E-3
1.035000E-7	6.123789E-3
1.035500E-7	6.094669E-3
1.036000E-7	6.082678E-3
1.036500E-7	6.087817E-3
1.037000E-7	6.108372E-3
1.037500E-7	6.146057E-3
1.038000E-7	6.199159E-3
1.038500E-7	6.284806E-3
1.039000E-7	6.408138E-3
1.039500E-7	6.533184E-3
1.040000E-7	6.623970E-3
1.040500E-7	6.678785E-3
1.041000E-7	6.713044E-3
1.041500E-7	6.749015E-3
1.042000E-7	6.803830E-3
1.042500E-7	6.867209E-3
1.043000E-7	6.898042E-3
1.043500E-7	6.892903E-3
1.044000E-7	6.865496E-3
1.044500E-7	6.822672E-3
1.045000E-7	6.781562E-3
1.045500E-7	6.774710E-3
1.046000E-7	6.790126E-3
1.046500E-7	6.791839E-3
1.047000E-7	6.771284E-3
1.047500E-7	6.745590E-3
1.048000E-7	6.689062E-3
1.048500E-7	6.598276E-3
1.049000E-7	6.492073E-3
1.049500E-7	6.391009E-3
1.050000E-7	6.313926E-3
1.050500E-7	6.265964E-3
1.051000E-7	6.235130E-3
1.051500E-7	6.204297E-3
1.052000E-7	6.195733E-3
1.052500E-7	6.233418E-3
1.053000E-7	6.305361E-3
1.053500E-7	6.399574E-3
1.054000E-7	6.510915E-3
1.054500E-7	6.601702E-3
1.055000E-7	6.642813E-3
1.055500E-7	6.656516E-3
1.056000E-7	6.651377E-3
1.056500E-7	6.598276E-3
1.057000E-7	6.509202E-3
1.057500E-7	6.428694E-3
1.058000E-7	6.361889E-3
1.058500E-7	6.286519E-3
1.059000E-7	6.228279E-3
1.059500E-7	6.206010E-3
1.060000E-7	6.212862E-3
1.060500E-7	6.250547E-3
1.061000E-7	6.344759E-3
1.061500E-7	6.464666E-3
1.062000E-7	6.569156E-3
1.062500E-7	6.659942E-3
1.063000E-7	6.752441E-3
1.063500E-7	6.834663E-3
1.064000E-7	6.904894E-3
1.064500E-7	6.988829E-3
1.065000E-7	7.053921E-3
1.065500E-7	7.062485E-3
1.066000E-7	7.016236E-3
1.066500E-7	6.911746E-3
1.067000E-7	6.759293E-3
1.067500E-7	6.599989E-3
1.068000E-7	6.461240E-3
1.068500E-7	6.312213E-3
1.069000E-7	6.159761E-3
1.069500E-7	6.043280E-3
1.070000E-7	5.966197E-3
1.070500E-7	5.904531E-3
1.071000E-7	5.871985E-3
1.071500E-7	5.894253E-3
1.072000E-7	5.967910E-3
1.072500E-7	6.067261E-3
1.073000E-7	6.173464E-3
1.073500E-7	6.272815E-3
1.074000E-7	6.363602E-3
1.074500E-7	6.430407E-3
1.075000E-7	6.442397E-3
1.075500E-7	6.408138E-3
1.076000E-7	6.368741E-3
1.076500E-7	6.319065E-3
1.077000E-7	6.207723E-3
1.077500E-7	6.060410E-3
1.078000E-7	5.945642E-3
1.078500E-7	5.863420E-3
1.079000E-7	5.793189E-3
1.079500E-7	5.767495E-3
1.080000E-7	5.813745E-3
1.080500E-7	5.901105E-3
1.081000E-7	6.009021E-3
1.081500E-7	6.154622E-3
1.082000E-7	6.334482E-3
1.082500E-7	6.504064E-3
1.083000E-7	6.653090E-3
1.083500E-7	6.798691E-3
1.084000E-7	6.922023E-3
1.084500E-7	7.002532E-3
1.085000E-7	7.028226E-3
1.085500E-7	7.011097E-3
1.086000E-7	6.964847E-3
1.086500E-7	6.899755E-3
1.087000E-7	6.841515E-3
1.087500E-7	6.798691E-3
1.088000E-7	6.761006E-3
1.088500E-7	6.721608E-3
1.089000E-7	6.714756E-3
1.089500E-7	6.726747E-3
1.090000E-7	6.750728E-3
1.090500E-7	6.795265E-3
1.091000E-7	6.853505E-3
1.091500E-7	6.887764E-3
1.092000E-7	6.899755E-3
1.092500E-7	6.922023E-3
1.093000E-7	6.937440E-3
1.093500E-7	6.942579E-3
1.094000E-7	6.971699E-3
1.094500E-7	7.009384E-3
1.095000E-7	7.016236E-3
1.095500E-7	7.045356E-3
1.096000E-7	7.117300E-3
1.096500E-7	7.173827E-3
1.097000E-7	7.165262E-3
1.097500E-7	7.139568E-3
1.098000E-7	7.089893E-3
1.098500E-7	6.988829E-3
1.099000E-7	6.899755E-3
1.099500E-7	6.867209E-3
1.100000E-7	6.856931E-3
1.100500E-7	6.822672E-3
1.101000E-7	6.796978E-3
1.101500E-7	6.808969E-3
1.102000E-7	6.822672E-3
1.102500E-7	6.819246E-3
1.103000E-7	6.812395E-3
1.103500E-7	6.814108E-3
1.104000E-7	6.829524E-3
1.104500E-7	6.850080E-3
1.105000E-7	6.850080E-3
1.105500E-7	6.831237E-3
1.106000E-7	6.812395E-3
1.106500E-7	6.788413E-3
1.107000E-7	6.752441E-3
1.107500E-7	6.731886E-3
1.108000E-7	6.735312E-3
1.108500E-7	6.737025E-3
1.109000E-7	6.719895E-3
1.109500E-7	6.707905E-3
1.110000E-7	6.697627E-3
1.110500E-7	6.675359E-3
1.111000E-7	6.656516E-3
1.111500E-7	6.630822E-3
1.112000E-7	6.594850E-3
1.112500E-7	6.562304E-3
1.113000E-7	6.553739E-3
1.113500E-7	6.569156E-3
1.114000E-7	6.605128E-3
1.114500E-7	6.653090E-3
1.115000E-7	6.701053E-3
1.115500E-7	6.735312E-3
1.116000E-7	6.738738E-3
1.116500E-7	6.694201E-3
1.117000E-7	6.632535E-3
1.117500E-7	6.599989E-3
1.118000E-7	6.586285E-3
1.118500E-7	6.570869E-3
1.119000E-7	6.560591E-3
1.119500E-7	6.576008E-3
1.120000E-7	6.622257E-3
1.120500E-7	6.699340E-3
1.121000E-7	6.779849E-3
1.121500E-7	6.846654E-3
1.122000E-7	6.932301E-3
1.122500E-7	7.041930E-3
1.123000E-7	7.142994E-3
1.123500E-7	7.226929E-3
1.124000E-7	7.309150E-3
1.124500E-7	7.345122E-3
1.125000E-7	7.300585E-3
1.125500E-7	7.218364E-3
1.126000E-7	7.134429E-3
1.126500E-7	7.041930E-3
1.127000E-7	6.961421E-3
1.127500E-7	6.927162E-3
1.128000E-7	6.932301E-3
1.128500E-7	6.940866E-3
1.129000E-7	6.944292E-3
1.129500E-7	6.944292E-3
1.130000E-7	6.932301E-3
1.130500E-7	6.927162E-3
1.131000E-7	6.930588E-3
1.131500E-7	6.915172E-3
1.132000E-7	6.880913E-3
1.132500E-7	6.862070E-3
1.133000E-7	6.848367E-3
1.133500E-7	6.798691E-3
1.134000E-7	6.740451E-3
1.134500E-7	6.697627E-3
1.135000E-7	6.649664E-3
1.135500E-7	6.579433E-3
1.136000E-7	6.521193E-3
1.136500E-7	6.474943E-3
1.137000E-7	6.418416E-3
1.137500E-7	6.373879E-3
1.138000E-7	6.367028E-3
1.138500E-7	6.385870E-3
1.139000E-7	6.413277E-3
1.139500E-7	6.456101E-3
1.140000E-7	6.514341E-3
1.140500E-7	6.598276E-3
1.141000E-7	6.706192E-3
1.141500E-7	6.819246E-3
1.142000E-7	6.899755E-3
1.142500E-7	6.942579E-3
1.143000E-7	6.956282E-3
1.143500E-7	6.932301E-3
1.144000E-7	6.872348E-3
1.144500E-7	6.788413E-3
1.145000E-7	6.675359E-3
1.145500E-7	6.546887E-3
1.146000E-7	6.414990E-3
1.146500E-7	6.288232E-3
1.147000E-7	6.192307E-3
1.147500E-7	6.142631E-3
1.148000E-7	6.139205E-3
1.148500E-7	6.178603E-3
1.149000E-7	6.250547E-3
1.149500E-7	6.327630E-3
1.150000E-7	6.411564E-3
1.150500E-7	6.521193E-3
1.151000E-7	6.642813E-3
1.151500E-7	6.747303E-3
1.152000E-7	6.853505E-3
1.152500E-7	6.939153E-3
1.153000E-7	6.973412E-3
1.153500E-7	6.942579E-3
1.154000E-7	6.880913E-3
1.154500E-7	6.779849E-3
1.155000E-7	6.630822E-3
1.155500E-7	6.438972E-3
1.156000E-7	6.257399E-3
1.156500E-7	6.098094E-3
1.157000E-7	5.945642E-3
1.157500E-7	5.793189E-3
1.158000E-7	5.697264E-3
1.158500E-7	5.673283E-3
1.159000E-7	5.700690E-3
1.159500E-7	5.791476E-3
1.160000E-7	5.952494E-3
1.160500E-7	6.139205E-3
1.161000E-7	6.320778E-3
1.161500E-7	6.500638E-3
1.162000E-7	6.678785E-3
1.162500E-7	6.831237E-3
1.163000E-7	6.949431E-3
1.163500E-7	6.997393E-3
1.164000E-7	6.957995E-3
1.164500E-7	6.855218E-3
1.165000E-7	6.704479E-3
1.165500E-7	6.529758E-3
1.166000E-7	6.385870E-3
1.166500E-7	6.286519E-3
1.167000E-7	6.188881E-3
1.167500E-7	6.115224E-3
1.168000E-7	6.116937E-3
1.168500E-7	6.168325E-3
1.169000E-7	6.231705E-3
1.169500E-7	6.310500E-3
1.170000E-7	6.409851E-3
1.170500E-7	6.504064E-3
1.171000E-7	6.596563E-3
1.171500E-7	6.677072E-3
1.172000E-7	6.723321E-3
1.172500E-7	6.761006E-3
1.173000E-7	6.795265E-3
1.173500E-7	6.802117E-3
1.174000E-7	6.810682E-3
1.174500E-7	6.860357E-3
1.175000E-7	6.947718E-3
1.175500E-7	7.064198E-3
1.176000E-7	7.228642E-3
1.176500E-7	7.413640E-3
1.177000E-7	7.559241E-3
1.177500E-7	7.648314E-3
1.178000E-7	7.713406E-3
1.178500E-7	7.745952E-3
1.179000E-7	7.735675E-3
1.179500E-7	7.701416E-3
1.180000E-7	7.650027E-3
1.180500E-7	7.524982E-3
1.181000E-7	7.304011E-3
1.181500E-7	7.031652E-3
1.182000E-7	6.762719E-3
1.182500E-7	6.522906E-3
1.183000E-7	6.343046E-3
1.183500E-7	6.229992E-3
1.184000E-7	6.158048E-3
1.184500E-7	6.098094E-3
1.185000E-7	6.056984E-3
1.185500E-7	6.050132E-3
1.186000E-7	6.082678E-3
1.186500E-7	6.137492E-3
1.187000E-7	6.214575E-3
1.187500E-7	6.322491E-3
1.188000E-7	6.457814E-3
1.188500E-7	6.574295E-3
1.189000E-7	6.653090E-3
1.189500E-7	6.723321E-3
1.190000E-7	6.784987E-3
1.190500E-7	6.819246E-3
1.191000E-7	6.817534E-3
1.191500E-7	6.791839E-3
1.192000E-7	6.761006E-3
1.192500E-7	6.742164E-3
1.193000E-7	6.711331E-3
1.193500E-7	6.651377E-3
1.194000E-7	6.584572E-3
1.194500E-7	6.521193E-3
1.195000E-7	6.433833E-3
1.195500E-7	6.334482E-3
1.196000E-7	6.267677E-3
1.196500E-7	6.219714E-3
1.197000E-7	6.178603E-3
1.197500E-7	6.173464E-3
1.198000E-7	6.216288E-3
1.198500E-7	6.274528E-3
1.199000E-7	6.341333E-3
1.199500E-7	6.416703E-3
1.200000E-7	6.473231E-3
1.200500E-7	6.526332E-3
1.201000E-7	6.579433E-3
1.201500E-7	6.598276E-3
1.202000E-7	6.577720E-3
1.202500E-7	6.552026E-3
1.203000E-7	6.514341E-3
1.203500E-7	6.462953E-3
1.204000E-7	6.440684E-3
1.204500E-7	6.444110E-3
1.205000E-7	6.445823E-3
1.205500E-7	6.469805E-3
1.206000E-7	6.541749E-3
1.206500E-7	6.637674E-3
1.207000E-7	6.735312E-3
1.207500E-7	6.832950E-3
1.208000E-7	6.940866E-3
1.208500E-7	7.036791E-3
1.209000E-7	7.081328E-3
1.209500E-7	7.052208E-3
1.210000E-7	6.990541E-3
1.210500E-7	6.918598E-3
1.211000E-7	6.820959E-3
1.211500E-7	6.707905E-3
1.212000E-7	6.644526E-3
1.212500E-7	6.615405E-3
1.213000E-7	6.557165E-3
1.213500E-7	6.474943E-3
1.214000E-7	6.409851E-3
1.214500E-7	6.360176E-3
1.215000E-7	6.319065E-3
1.215500E-7	6.301936E-3
1.216000E-7	6.308787E-3
1.216500E-7	6.319065E-3
1.217000E-7	6.332769E-3
1.217500E-7	6.348185E-3
1.218000E-7	6.356750E-3
1.218500E-7	6.363602E-3
1.219000E-7	6.385870E-3
1.219500E-7	6.426981E-3
1.220000E-7	6.493786E-3
1.220500E-7	6.565730E-3
1.221000E-7	6.615405E-3
1.221500E-7	6.649664E-3
1.222000E-7	6.701053E-3
1.222500E-7	6.761006E-3
1.223000E-7	6.796978E-3
1.223500E-7	6.808969E-3
1.224000E-7	6.820959E-3
1.224500E-7	6.839802E-3
1.225000E-7	6.872348E-3
1.225500E-7	6.894616E-3
1.226000E-7	6.896329E-3
1.226500E-7	6.860357E-3
1.227000E-7	6.776423E-3
1.227500E-7	6.622257E-3
1.228000E-7	6.425268E-3
1.228500E-7	6.236843E-3
1.229000E-7	6.055271E-3
1.229500E-7	5.848004E-3
1.230000E-7	5.647589E-3
1.230500E-7	5.512266E-3
1.231000E-7	5.442035E-3
1.231500E-7	5.431757E-3
1.232000E-7	5.517404E-3
1.232500E-7	5.693838E-3
1.233000E-7	5.911383E-3
1.233500E-7	6.152909E-3
1.234000E-7	6.416703E-3
1.234500E-7	6.666794E-3
1.235000E-7	6.853505E-3
1.235500E-7	6.985403E-3
1.236000E-7	7.084754E-3
1.236500E-7	7.139568E-3
1.237000E-7	7.129290E-3
1.237500E-7	7.048782E-3
1.238000E-7	6.947718E-3
1.238500E-7	6.853505E-3
1.239000E-7	6.772997E-3
1.239500E-7	6.704479E-3
1.240000E-7	6.654803E-3
1.240500E-7	6.630822E-3
1.241000E-7	6.644526E-3
1.241500E-7	6.678785E-3
1.242000E-7	6.719895E-3
1.242500E-7	6.754154E-3
1.243000E-7	6.778136E-3
1.243500E-7	6.779849E-3
1.244000E-7	6.743877E-3
1.244500E-7	6.699340E-3
1.245000E-7	6.639387E-3
1.245500E-7	6.557165E-3
1.246000E-7	6.498925E-3
1.246500E-7	6.500638E-3
1.247000E-7	6.528045E-3
1.247500E-7	6.565730E-3
1.248000E-7	6.656516E-3
1.248500E-7	6.798691E-3
1.249000E-7	6.915172E-3
1.249500E-7	6.997393E-3
1.250000E-7	7.065911E-3
1.250500E-7	7.101883E-3
1.251000E-7	7.112161E-3
1.251500E-7	7.139568E-3
1.252000E-7	7.151559E-3
1.252500E-7	7.110448E-3
1.253000E-7	7.065911E-3
1.253500E-7	7.033365E-3
1.254000E-7	6.975125E-3
1.254500E-7	6.896329E-3
1.255000E-7	6.851793E-3
1.255500E-7	6.844941E-3
1.256000E-7	6.843228E-3
1.256500E-7	6.826098E-3
1.257000E-7	6.783274E-3
1.257500E-7	6.747303E-3
1.258000E-7	6.743877E-3
1.258500E-7	6.737025E-3
1.259000E-7	6.699340E-3
1.259500E-7	6.670220E-3
1.260000E-7	6.678785E-3
1.260500E-7	6.690775E-3
1.261000E-7	6.704479E-3
1.261500E-7	6.745590E-3
1.262000E-7	6.808969E-3
1.262500E-7	6.880913E-3
1.263000E-7	6.940866E-3
1.263500E-7	6.976838E-3
1.264000E-7	7.014523E-3
1.264500E-7	7.069337E-3
1.265000E-7	7.091606E-3
1.265500E-7	7.057347E-3
1.266000E-7	7.004245E-3
1.266500E-7	6.925449E-3
1.267000E-7	6.778136E-3
1.267500E-7	6.586285E-3
1.268000E-7	6.413277E-3
1.268500E-7	6.272815E-3
1.269000E-7	6.154622E-3
1.269500E-7	6.067261E-3
1.270000E-7	6.019299E-3
1.270500E-7	6.003882E-3
1.271000E-7	6.031289E-3
1.271500E-7	6.120363E-3
1.272000E-7	6.259112E-3
1.272500E-7	6.423555E-3
1.273000E-7	6.617118E-3
1.273500E-7	6.808969E-3
1.274000E-7	6.975125E-3
1.274500E-7	7.093318E-3
1.275000E-7	7.170401E-3
1.275500E-7	7.204660E-3
1.276000E-7	7.202947E-3
1.276500E-7	7.148133E-3
1.277000E-7	7.052208E-3
1.277500E-7	6.949431E-3
1.278000E-7	6.868922E-3
1.278500E-7	6.819246E-3
1.279000E-7	6.817534E-3
1.279500E-7	6.844941E-3
1.280000E-7	6.879200E-3
1.280500E-7	6.911746E-3
1.281000E-7	6.932301E-3
1.281500E-7	6.906607E-3
1.282000E-7	6.841515E-3
1.282500E-7	6.749015E-3
1.283000E-7	6.605128E-3
1.283500E-7	6.425268E-3
1.284000E-7	6.293371E-3
1.284500E-7	6.240269E-3
1.285000E-7	6.202584E-3
1.285500E-7	6.168325E-3
1.286000E-7	6.182029E-3
1.286500E-7	6.250547E-3
1.287000E-7	6.348185E-3
1.287500E-7	6.481795E-3
1.288000E-7	6.651377E-3
1.288500E-7	6.836376E-3
1.289000E-7	7.000819E-3
1.289500E-7	7.093318E-3
1.290000E-7	7.086467E-3
1.290500E-7	7.041930E-3
1.291000E-7	6.983690E-3
1.291500E-7	6.901468E-3
1.292000E-7	6.805543E-3
1.292500E-7	6.704479E-3
1.293000E-7	6.603415E-3
1.293500E-7	6.548600E-3
1.294000E-7	6.574295E-3
1.294500E-7	6.637674E-3
1.295000E-7	6.697627E-3
1.295500E-7	6.781562E-3
1.296000E-7	6.884339E-3
1.296500E-7	6.952857E-3
1.297000E-7	6.947718E-3
1.297500E-7	6.882626E-3
1.298000E-7	6.772997E-3
1.298500E-7	6.623970E-3
1.299000E-7	6.435546E-3
1.299500E-7	6.250547E-3
1.300000E-7	6.106659E-3
1.300500E-7	6.009021E-3
1.301000E-7	5.938790E-3
1.301500E-7	5.913096E-3
1.302000E-7	5.933651E-3
1.302500E-7	5.983327E-3
1.303000E-7	6.050132E-3
1.303500E-7	6.130641E-3
1.304000E-7	6.223140E-3
1.304500E-7	6.341333E-3
1.305000E-7	6.468092E-3
1.305500E-7	6.565730E-3
1.306000E-7	6.629109E-3
1.306500E-7	6.685636E-3
1.307000E-7	6.721608E-3
1.307500E-7	6.718182E-3
1.308000E-7	6.695914E-3
1.308500E-7	6.694201E-3
1.309000E-7	6.699340E-3
1.309500E-7	6.713044E-3
1.310000E-7	6.761006E-3
1.310500E-7	6.839802E-3
1.311000E-7	6.904894E-3
1.311500E-7	6.964847E-3
1.312000E-7	7.033365E-3
1.312500E-7	7.072763E-3
1.313000E-7	7.074476E-3
1.313500E-7	7.077902E-3
1.314000E-7	7.074476E-3
1.314500E-7	7.043643E-3
1.315000E-7	7.002532E-3
1.315500E-7	6.959708E-3
1.316000E-7	6.891190E-3
1.316500E-7	6.783274E-3
1.317000E-7	6.668507E-3
1.317500E-7	6.558878E-3
1.318000E-7	6.462953E-3
1.318500E-7	6.387583E-3
1.319000E-7	6.363602E-3
1.319500E-7	6.384157E-3
1.320000E-7	6.447536E-3
1.320500E-7	6.543461E-3
1.321000E-7	6.687349E-3
1.321500E-7	6.879200E-3
1.322000E-7	7.065911E-3
1.322500E-7	7.206373E-3
1.323000E-7	7.327993E-3
1.323500E-7	7.447899E-3
1.324000E-7	7.536973E-3
1.324500E-7	7.583222E-3
1.325000E-7	7.593500E-3
1.325500E-7	7.566093E-3
1.326000E-7	7.519843E-3
1.326500E-7	7.482158E-3
1.327000E-7	7.446186E-3
1.327500E-7	7.401649E-3
1.328000E-7	7.370816E-3
1.328500E-7	7.346835E-3
1.329000E-7	7.295447E-3
1.329500E-7	7.242345E-3
1.330000E-7	7.197808E-3
1.330500E-7	7.110448E-3
1.331000E-7	6.983690E-3
1.331500E-7	6.879200E-3
1.332000E-7	6.788413E-3
1.332500E-7	6.682210E-3
1.333000E-7	6.593137E-3
1.333500E-7	6.536610E-3
1.334000E-7	6.481795E-3
1.334500E-7	6.430407E-3
1.335000E-7	6.423555E-3
1.335500E-7	6.480082E-3
1.336000E-7	6.584572E-3
1.336500E-7	6.709618E-3
1.337000E-7	6.834663E-3
1.337500E-7	6.937440E-3
1.338000E-7	7.002532E-3
1.338500E-7	7.028226E-3
1.339000E-7	7.005958E-3
1.339500E-7	6.947718E-3
1.340000E-7	6.868922E-3
1.340500E-7	6.772997E-3
1.341000E-7	6.653090E-3
1.341500E-7	6.526332E-3
1.342000E-7	6.421842E-3
1.342500E-7	6.370454E-3
1.343000E-7	6.365315E-3
1.343500E-7	6.392722E-3
1.344000E-7	6.442397E-3
1.344500E-7	6.517767E-3
1.345000E-7	6.618831E-3
1.345500E-7	6.726747E-3
1.346000E-7	6.831237E-3
1.346500E-7	6.915172E-3
1.347000E-7	6.946005E-3
1.347500E-7	6.925449E-3
1.348000E-7	6.887764E-3
1.348500E-7	6.838089E-3
1.349000E-7	6.769571E-3
1.349500E-7	6.709618E-3
1.350000E-7	6.702766E-3
1.350500E-7	6.742164E-3
1.351000E-7	6.788413E-3
1.351500E-7	6.855218E-3
1.352000E-7	6.959708E-3
1.352500E-7	7.088180E-3
1.353000E-7	7.223503E-3
1.353500E-7	7.355400E-3
1.354000E-7	7.435908E-3
1.354500E-7	7.437621E-3
1.355000E-7	7.396511E-3
1.355500E-7	7.348548E-3
1.356000E-7	7.280030E-3
1.356500E-7	7.189244E-3
1.357000E-7	7.101883E-3
1.357500E-7	7.024800E-3
1.358000E-7	6.944292E-3
1.358500E-7	6.856931E-3
1.359000E-7	6.772997E-3
1.359500E-7	6.711331E-3
1.360000E-7	6.668507E-3
1.360500E-7	6.623970E-3
1.361000E-7	6.577720E-3
1.361500E-7	6.584572E-3
1.362000E-7	6.630822E-3
1.362500E-7	6.671933E-3
1.363000E-7	6.728460E-3
1.363500E-7	6.841515E-3
1.364000E-7	6.981977E-3
1.364500E-7	7.101883E-3
1.365000E-7	7.213225E-3
1.365500E-7	7.331419E-3
1.366000E-7	7.435908E-3
1.366500E-7	7.501001E-3
1.367000E-7	7.506139E-3
1.367500E-7	7.442760E-3
1.368000E-7	7.321141E-3
1.368500E-7	7.156698E-3
1.369000E-7	6.940866E-3
1.369500E-7	6.695914E-3
1.370000E-7	6.466379E-3
1.370500E-7	6.264251E-3
1.371000E-7	6.118650E-3
1.371500E-7	6.039854E-3
1.372000E-7	6.033002E-3
1.372500E-7	6.087817E-3
1.373000E-7	6.183742E-3
1.373500E-7	6.310500E-3
1.374000E-7	6.488647E-3
1.374500E-7	6.695914E-3
1.375000E-7	6.879200E-3
1.375500E-7	7.011097E-3
1.376000E-7	7.112161E-3
1.376500E-7	7.177253E-3
1.377000E-7	7.201234E-3
1.377500E-7	7.204660E-3
1.378000E-7	7.185818E-3
1.378500E-7	7.108735E-3
1.379000E-7	6.976838E-3
1.379500E-7	6.844941E-3
1.380000E-7	6.755867E-3
1.380500E-7	6.702766E-3
1.381000E-7	6.649664E-3
1.381500E-7	6.594850E-3
1.382000E-7	6.546887E-3
1.382500E-7	6.498925E-3
1.383000E-7	6.437259E-3
1.383500E-7	6.387583E-3
1.384000E-7	6.351611E-3
1.384500E-7	6.305361E-3
1.385000E-7	6.274528E-3
1.385500E-7	6.298510E-3
1.386000E-7	6.332769E-3
1.386500E-7	6.341333E-3
1.387000E-7	6.356750E-3
1.387500E-7	6.411564E-3
1.388000E-7	6.468092E-3
1.388500E-7	6.507490E-3
1.389000E-7	6.540036E-3
1.389500E-7	6.570869E-3
1.390000E-7	6.587998E-3
1.390500E-7	6.586285E-3
1.391000E-7	6.570869E-3
1.391500E-7	6.538323E-3
1.392000E-7	6.481795E-3
1.392500E-7	6.414990E-3
1.393000E-7	6.337907E-3
1.393500E-7	6.257399E-3
1.394000E-7	6.204297E-3
1.394500E-7	6.200871E-3
1.395000E-7	6.228279E-3
1.395500E-7	6.269389E-3
1.396000E-7	6.358463E-3
1.396500E-7	6.474943E-3
1.397000E-7	6.553739E-3
1.397500E-7	6.611979E-3
1.398000E-7	6.692488E-3
1.398500E-7	6.752441E-3
1.399000E-7	6.738738E-3
1.399500E-7	6.709618E-3
1.400000E-7	6.702766E-3
1.400500E-7	6.692488E-3
1.401000E-7	6.670220E-3
1.401500E-7	6.642813E-3
1.402000E-7	6.613692E-3
1.402500E-7	6.591424E-3
1.403000E-7	6.591424E-3
1.403500E-7	6.591424E-3
1.404000E-7	6.586285E-3
1.404500E-7	6.601702E-3
1.405000E-7	6.630822E-3
1.405500E-7	6.625683E-3
1.406000E-7	6.599989E-3
1.406500E-7	6.593137E-3
1.407000E-7	6.599989E-3
1.407500E-7	6.589711E-3
1.408000E-7	6.603415E-3
1.408500E-7	6.671933E-3
1.409000E-7	6.749015E-3
1.409500E-7	6.793552E-3
1.410000E-7	6.844941E-3
1.410500E-7	6.937440E-3
1.411000E-7	7.038504E-3
1.411500E-7	7.101883E-3
1.412000E-7	7.144707E-3
1.412500E-7	7.180679E-3
1.413000E-7	7.194383E-3
1.413500E-7	7.192670E-3
1.414000E-7	7.204660E-3
1.414500E-7	7.223503E-3
1.415000E-7	7.206373E-3
1.415500E-7	7.134429E-3
1.416000E-7	7.043643E-3
1.416500E-7	6.966560E-3
1.417000E-7	6.875774E-3
1.417500E-7	6.754154E-3
1.418000E-7	6.653090E-3
1.418500E-7	6.610267E-3
1.419000E-7	6.574295E-3
1.419500E-7	6.516054E-3
1.420000E-7	6.483508E-3
1.420500E-7	6.497212E-3
1.421000E-7	6.524619E-3
1.421500E-7	6.576008E-3
1.422000E-7	6.665081E-3
1.422500E-7	6.755867E-3
1.423000E-7	6.829524E-3
1.423500E-7	6.898042E-3
1.424000E-7	6.952857E-3
1.424500E-7	6.981977E-3
1.425000E-7	6.999106E-3
1.425500E-7	7.005958E-3
1.426000E-7	7.007671E-3
1.426500E-7	7.035078E-3
1.427000E-7	7.069337E-3
1.427500E-7	7.098457E-3
1.428000E-7	7.141281E-3
1.428500E-7	7.187531E-3
1.429000E-7	7.163549E-3
1.429500E-7	7.047069E-3
1.430000E-7	6.889477E-3
1.430500E-7	6.726747E-3
1.431000E-7	6.534897E-3
1.431500E-7	6.327630E-3
1.432000E-7	6.152909E-3
1.432500E-7	6.024438E-3
1.433000E-7	5.926799E-3
1.433500E-7	5.877124E-3
1.434000E-7	5.925087E-3
1.434500E-7	6.072400E-3
1.435000E-7	6.265964E-3
1.435500E-7	6.485221E-3
1.436000E-7	6.750728E-3
1.436500E-7	7.029939E-3
1.437000E-7	7.244058E-3
1.437500E-7	7.369103E-3
1.438000E-7	7.437621E-3
1.438500E-7	7.453038E-3
1.439000E-7	7.399937E-3
1.439500E-7	7.292021E-3
1.440000E-7	7.161836E-3
1.440500E-7	7.040217E-3
1.441000E-7	6.935727E-3
1.441500E-7	6.850080E-3
1.442000E-7	6.808969E-3
1.442500E-7	6.807256E-3
1.443000E-7	6.802117E-3
1.443500E-7	6.798691E-3
1.444000E-7	6.827811E-3
1.444500E-7	6.858644E-3
1.445000E-7	6.839802E-3
1.445500E-7	6.798691E-3
1.446000E-7	6.796978E-3
1.446500E-7	6.817534E-3
1.447000E-7	6.838089E-3
1.447500E-7	6.858644E-3
1.448000E-7	6.894616E-3
1.448500E-7	6.928875E-3
1.449000E-7	6.946005E-3
1.449500E-7	6.934014E-3
1.450000E-7	6.911746E-3
1.450500E-7	6.882626E-3
1.451000E-7	6.843228E-3
1.451500E-7	6.800404E-3
1.452000E-7	6.784987E-3
1.452500E-7	6.783274E-3
1.453000E-7	6.755867E-3
1.453500E-7	6.706192E-3
1.454000E-7	6.670220E-3
1.454500E-7	6.653090E-3
1.455000E-7	6.651377E-3
1.455500E-7	6.678785E-3
1.456000E-7	6.726747E-3
1.456500E-7	6.766145E-3
1.457000E-7	6.786700E-3
1.457500E-7	6.805543E-3
1.458000E-7	6.827811E-3
1.458500E-7	6.836376E-3
1.459000E-7	6.853505E-3
1.459500E-7	6.894616E-3
1.460000E-7	6.937440E-3
1.460500E-7	6.961421E-3
1.461000E-7	6.963134E-3
1.461500E-7	6.969986E-3
1.462000E-7	6.975125E-3
1.462500E-7	6.963134E-3
1.463000E-7	6.918598E-3
1.463500E-7	6.870635E-3
1.464000E-7	6.863783E-3
1.464500E-7	6.870635E-3
1.465000E-7	6.841515E-3
1.465500E-7	6.817534E-3
1.466000E-7	6.834663E-3
1.466500E-7	6.808969E-3
1.467000E-7	6.730173E-3
1.467500E-7	6.683923E-3
1.468000E-7	6.694201E-3
1.468500E-7	6.665081E-3
1.469000E-7	6.606841E-3
1.469500E-7	6.586285E-3
1.470000E-7	6.579433E-3
1.470500E-7	6.546887E-3
1.471000E-7	6.524619E-3
1.471500E-7	6.548600E-3
1.472000E-7	6.586285E-3
1.472500E-7	6.610267E-3
1.473000E-7	6.627396E-3
1.473500E-7	6.665081E-3
1.474000E-7	6.731886E-3
1.474500E-7	6.805543E-3
1.475000E-7	6.844941E-3
1.475500E-7	6.850080E-3
1.476000E-7	6.838089E-3
1.476500E-7	6.800404E-3
1.477000E-7	6.709618E-3
1.477500E-7	6.587998E-3
1.478000E-7	6.486934E-3
1.478500E-7	6.403000E-3
1.479000E-7	6.324204E-3
1.479500E-7	6.267677E-3
1.480000E-7	6.253973E-3
1.480500E-7	6.250547E-3
1.481000E-7	6.226566E-3
1.481500E-7	6.204297E-3
1.482000E-7	6.211149E-3
1.482500E-7	6.238556E-3
1.483000E-7	6.260825E-3
1.483500E-7	6.279667E-3
1.484000E-7	6.291658E-3
1.484500E-7	6.301936E-3
1.485000E-7	6.296797E-3
1.485500E-7	6.291658E-3
1.486000E-7	6.295084E-3
1.486500E-7	6.293371E-3
1.487000E-7	6.269389E-3
1.487500E-7	6.257399E-3
1.488000E-7	6.301936E-3
1.488500E-7	6.372166E-3
1.489000E-7	6.394435E-3
1.489500E-7	6.372166E-3
1.490000E-7	6.367028E-3
1.490500E-7	6.392722E-3
1.491000E-7	6.399574E-3
1.491500E-7	6.401287E-3
1.492000E-7	6.442397E-3
1.492500E-7	6.512628E-3
1.493000E-7	6.587998E-3
1.493500E-7	6.661655E-3
1.494000E-7	6.742164E-3
1.494500E-7	6.848367E-3
1.495000E-7	6.983690E-3
1.495500E-7	7.115587E-3
1.496000E-7	7.233780E-3
1.496500E-7	7.353687E-3
1.497000E-7	7.444473E-3
1.497500E-7	7.487297E-3
1.498000E-7	7.492436E-3
1.498500E-7	7.470167E-3
1.499000E-7	7.410214E-3
1.499500E-7	7.314289E-3
1.500000E-7	7.187531E-3
1.500500E-7	7.000819E-3
1.501000E-7	6.766145E-3
1.501500E-7	6.536610E-3
1.502000E-7	6.332769E-3
1.502500E-7	6.156335E-3
1.503000E-7	6.036428E-3
1.503500E-7	5.995317E-3
1.504000E-7	6.029576E-3
1.504500E-7	6.134066E-3
1.505000E-7	6.289945E-3
1.505500E-7	6.454388E-3
1.506000E-7	6.596563E-3
1.506500E-7	6.718182E-3
1.507000E-7	6.824385E-3
1.507500E-7	6.911746E-3
1.508000E-7	6.944292E-3
1.508500E-7	6.923736E-3
1.509000E-7	6.886052E-3
1.509500E-7	6.826098E-3
1.510000E-7	6.706192E-3
1.510500E-7	6.548600E-3
1.511000E-7	6.406425E-3
1.511500E-7	6.293371E-3
1.512000E-7	6.218001E-3
1.512500E-7	6.212862E-3
1.513000E-7	6.264251E-3
1.513500E-7	6.339620E-3
1.514000E-7	6.449249E-3
1.514500E-7	6.581146E-3
1.515000E-7	6.694201E-3
1.515500E-7	6.772997E-3
1.516000E-7	6.843228E-3
1.516500E-7	6.875774E-3
1.517000E-7	6.827811E-3
1.517500E-7	6.740451E-3
1.518000E-7	6.635961E-3
1.518500E-7	6.486934E-3
1.519000E-7	6.286519E-3
1.519500E-7	6.098094E-3
1.520000E-7	5.949068E-3
1.520500E-7	5.822310E-3
1.521000E-7	5.726384E-3
1.521500E-7	5.681848E-3
1.522000E-7	5.690412E-3
1.522500E-7	5.767495E-3
1.523000E-7	5.904531E-3
1.523500E-7	6.072400E-3
1.524000E-7	6.283093E-3
1.524500E-7	6.538323E-3
1.525000E-7	6.766145E-3
1.525500E-7	6.961421E-3
1.526000E-7	7.180679E-3
1.526500E-7	7.399937E-3
1.527000E-7	7.554102E-3
1.527500E-7	7.667157E-3
1.528000E-7	7.766508E-3
1.528500E-7	7.811045E-3
1.529000E-7	7.773360E-3
1.529500E-7	7.663731E-3
1.530000E-7	7.492436E-3
1.530500E-7	7.269752E-3
1.531000E-7	7.023088E-3
1.531500E-7	6.754154E-3
1.532000E-7	6.480082E-3
1.532500E-7	6.252260E-3
1.533000E-7	6.082678E-3
1.533500E-7	5.969623E-3
1.534000E-7	5.902818E-3
1.534500E-7	5.865133E-3
1.535000E-7	5.844578E-3
1.535500E-7	5.871985E-3
1.536000E-7	5.966197E-3
1.536500E-7	6.065548E-3
1.537000E-7	6.144344E-3
1.537500E-7	6.226566E-3
1.538000E-7	6.315639E-3
1.538500E-7	6.382444E-3
1.539000E-7	6.420129E-3
1.539500E-7	6.452675E-3
1.540000E-7	6.490360E-3
1.540500E-7	6.550313E-3
1.541000E-7	6.625683E-3
1.541500E-7	6.685636E-3
1.542000E-7	6.730173E-3
1.542500E-7	6.766145E-3
1.543000E-7	6.772997E-3
1.543500E-7	6.730173E-3
1.544000E-7	6.665081E-3
1.544500E-7	6.611979E-3
1.545000E-7	6.555452E-3
1.545500E-7	6.481795E-3
1.546000E-7	6.414990E-3
1.546500E-7	6.377305E-3
1.547000E-7	6.375592E-3
1.547500E-7	6.408138E-3
1.548000E-7	6.462953E-3
1.548500E-7	6.531471E-3
1.549000E-7	6.613692E-3
1.549500E-7	6.697627E-3
1.550000E-7	6.788413E-3
1.550500E-7	6.872348E-3
1.551000E-7	6.927162E-3
1.551500E-7	6.956282E-3
1.552000E-7	6.975125E-3
1.552500E-7	6.978551E-3
1.553000E-7	6.966560E-3
1.553500E-7	6.944292E-3
1.554000E-7	6.908320E-3
1.554500E-7	6.851793E-3
1.555000E-7	6.795265E-3
1.555500E-7	6.761006E-3
1.556000E-7	6.752441E-3
1.556500E-7	6.738738E-3
1.557000E-7	6.692488E-3
1.557500E-7	6.642813E-3
1.558000E-7	6.618831E-3
1.558500E-7	6.594850E-3
1.559000E-7	6.545174E-3
1.559500E-7	6.517767E-3
1.560000E-7	6.564017E-3
1.560500E-7	6.661655E-3
1.561000E-7	6.767858E-3
1.561500E-7	6.896329E-3
1.562000E-7	7.021375E-3
1.562500E-7	7.086467E-3
1.563000E-7	7.107022E-3
1.563500E-7	7.136142E-3
1.564000E-7	7.163549E-3
1.564500E-7	7.161836E-3
1.565000E-7	7.148133E-3
1.565500E-7	7.137855E-3
1.566000E-7	7.125865E-3
1.566500E-7	7.119013E-3
1.567000E-7	7.119013E-3
1.567500E-7	7.098457E-3
1.568000E-7	7.062485E-3
1.568500E-7	7.036791E-3
1.569000E-7	6.992254E-3
1.569500E-7	6.906607E-3
1.570000E-7	6.802117E-3
1.570500E-7	6.706192E-3
1.571000E-7	6.589711E-3
1.571500E-7	6.447536E-3
1.572000E-7	6.303648E-3
1.572500E-7	6.166612E-3
1.573000E-7	6.041567E-3
1.573500E-7	5.942216E-3
1.574000E-7	5.878837E-3
1.574500E-7	5.871985E-3
1.575000E-7	5.911383E-3
1.575500E-7	5.967910E-3
1.576000E-7	6.033002E-3
1.576500E-7	6.132353E-3
1.577000E-7	6.240269E-3
1.577500E-7	6.334482E-3
1.578000E-7	6.444110E-3
1.578500E-7	6.569156E-3
1.579000E-7	6.646238E-3
1.579500E-7	6.670220E-3
1.580000E-7	6.675359E-3
1.580500E-7	6.641100E-3
1.581000E-7	6.557165E-3
1.581500E-7	6.486934E-3
1.582000E-7	6.433833E-3
1.582500E-7	6.348185E-3
1.583000E-7	6.260825E-3
1.583500E-7	6.224853E-3
1.584000E-7	6.229992E-3
1.584500E-7	6.248834E-3
1.585000E-7	6.312213E-3
1.585500E-7	6.396148E-3
1.586000E-7	6.488647E-3
1.586500E-7	6.601702E-3
1.587000E-7	6.750728E-3
1.587500E-7	6.886052E-3
1.588000E-7	6.978551E-3
1.588500E-7	7.026513E-3
1.589000E-7	7.024800E-3
1.589500E-7	6.981977E-3
1.590000E-7	6.940866E-3
1.590500E-7	6.916885E-3
1.591000E-7	6.886052E-3
1.591500E-7	6.867209E-3
1.592000E-7	6.877487E-3
1.592500E-7	6.887764E-3
1.593000E-7	6.872348E-3
1.593500E-7	6.858644E-3
1.594000E-7	6.862070E-3
1.594500E-7	6.860357E-3
1.595000E-7	6.891190E-3
1.595500E-7	6.973412E-3
1.596000E-7	7.048782E-3
1.596500E-7	7.062485E-3
1.597000E-7	7.023088E-3
1.597500E-7	6.956282E-3
1.598000E-7	6.875774E-3
1.598500E-7	6.810682E-3
1.599000E-7	6.754154E-3
1.599500E-7	6.682210E-3
1.600000E-7	6.610267E-3
1.600500E-7	6.567443E-3
1.601000E-7	6.526332E-3
1.601500E-7	6.485221E-3
1.602000E-7	6.471518E-3
1.602500E-7	6.486934E-3
1.603000E-7	6.498925E-3
1.603500E-7	6.517767E-3
1.604000E-7	6.564017E-3
1.604500E-7	6.605128E-3
1.605000E-7	6.610267E-3
1.605500E-7	6.598276E-3
1.606000E-7	6.576008E-3
1.606500E-7	6.512628E-3
1.607000E-7	6.423555E-3
1.607500E-7	6.332769E-3
1.608000E-7	6.250547E-3
1.608500E-7	6.176890E-3
1.609000E-7	6.156335E-3
1.609500E-7	6.183742E-3
1.610000E-7	6.241982E-3
1.610500E-7	6.334482E-3
1.611000E-7	6.445823E-3
1.611500E-7	6.516054E-3
1.612000E-7	6.553739E-3
1.612500E-7	6.586285E-3
1.613000E-7	6.576008E-3
1.613500E-7	6.504064E-3
1.614000E-7	6.421842E-3
1.614500E-7	6.343046E-3
1.615000E-7	6.206010E-3
1.615500E-7	6.024438E-3
1.616000E-7	5.866846E-3
1.616500E-7	5.762356E-3
1.617000E-7	5.704116E-3
1.617500E-7	5.707542E-3
1.618000E-7	5.767495E-3
1.618500E-7	5.892540E-3
1.619000E-7	6.075826E-3
1.619500E-7	6.267677E-3
1.620000E-7	6.433833E-3
1.620500E-7	6.610267E-3
1.621000E-7	6.805543E-3
1.621500E-7	6.976838E-3
1.622000E-7	7.105309E-3
1.622500E-7	7.192670E-3
1.623000E-7	7.226929E-3
1.623500E-7	7.213225E-3
1.624000E-7	7.173827E-3
1.624500E-7	7.115587E-3
1.625000E-7	7.045356E-3
1.625500E-7	6.957995E-3
1.626000E-7	6.843228E-3
1.626500E-7	6.738738E-3
1.627000E-7	6.695914E-3
1.627500E-7	6.697627E-3
1.628000E-7	6.713044E-3
1.628500E-7	6.752441E-3
1.629000E-7	6.820959E-3
1.629500E-7	6.862070E-3
1.630000E-7	6.860357E-3
1.630500E-7	6.855218E-3
1.631000E-7	6.853505E-3
1.631500E-7	6.844941E-3
1.632000E-7	6.848367E-3
1.632500E-7	6.886052E-3
1.633000E-7	6.916885E-3
1.633500E-7	6.922023E-3
1.634000E-7	6.952857E-3
1.634500E-7	7.007671E-3
1.635000E-7	7.040217E-3
1.635500E-7	7.055634E-3
1.636000E-7	7.072763E-3
1.636500E-7	7.095031E-3
1.637000E-7	7.122439E-3
1.637500E-7	7.144707E-3
1.638000E-7	7.131003E-3
1.638500E-7	7.098457E-3
1.639000E-7	7.055634E-3
1.639500E-7	6.968273E-3
1.640000E-7	6.862070E-3
1.640500E-7	6.779849E-3
1.641000E-7	6.704479E-3
1.641500E-7	6.608554E-3
1.642000E-7	6.522906E-3
1.642500E-7	6.450962E-3
1.643000E-7	6.375592E-3
1.643500E-7	6.331056E-3
1.644000E-7	6.353324E-3
1.644500E-7	6.413277E-3
1.645000E-7	6.492073E-3
1.645500E-7	6.586285E-3
1.646000E-7	6.659942E-3
1.646500E-7	6.706192E-3
1.647000E-7	6.755867E-3
1.647500E-7	6.793552E-3
1.648000E-7	6.786700E-3
1.648500E-7	6.725034E-3
1.649000E-7	6.618831E-3
1.649500E-7	6.492073E-3
1.650000E-7	6.409851E-3
1.650500E-7	6.363602E-3
1.651000E-7	6.300223E-3
1.651500E-7	6.250547E-3
1.652000E-7	6.257399E-3
1.652500E-7	6.289945E-3
1.653000E-7	6.339620E-3
1.653500E-7	6.423555E-3
1.654000E-7	6.521193E-3
1.654500E-7	6.591424E-3
1.655000E-7	6.637674E-3
1.655500E-7	6.651377E-3
1.656000E-7	6.615405E-3
1.656500E-7	6.562304E-3
1.657000E-7	6.502351E-3
1.657500E-7	6.440684E-3
1.658000E-7	6.382444E-3
1.658500E-7	6.334482E-3
1.659000E-7	6.267677E-3
1.659500E-7	6.199159E-3
1.660000E-7	6.183742E-3
1.660500E-7	6.219714E-3
1.661000E-7	6.274528E-3
1.661500E-7	6.339620E-3
1.662000E-7	6.432120E-3
1.662500E-7	6.531471E-3
1.663000E-7	6.601702E-3
1.663500E-7	6.665081E-3
1.664000E-7	6.728460E-3
1.664500E-7	6.742164E-3
1.665000E-7	6.689062E-3
1.665500E-7	6.625683E-3
1.666000E-7	6.587998E-3
1.666500E-7	6.533184E-3
1.667000E-7	6.480082E-3
1.667500E-7	6.464666E-3
1.668000E-7	6.476656E-3
1.668500E-7	6.474943E-3
1.669000E-7	6.476656E-3
1.669500E-7	6.500638E-3
1.670000E-7	6.534897E-3
1.670500E-7	6.555452E-3
1.671000E-7	6.545174E-3
1.671500E-7	6.507490E-3
1.672000E-7	6.481795E-3
1.672500E-7	6.483508E-3
1.673000E-7	6.478369E-3
1.673500E-7	6.480082E-3
1.674000E-7	6.509202E-3
1.674500E-7	6.572582E-3
1.675000E-7	6.668507E-3
1.675500E-7	6.774710E-3
1.676000E-7	6.844941E-3
1.676500E-7	6.872348E-3
1.677000E-7	6.874061E-3
1.677500E-7	6.862070E-3
1.678000E-7	6.817534E-3
1.678500E-7	6.755867E-3
1.679000E-7	6.678785E-3
1.679500E-7	6.596563E-3
1.680000E-7	6.517767E-3
1.680500E-7	6.456101E-3
1.681000E-7	6.394435E-3
1.681500E-7	6.343046E-3
1.682000E-7	6.332769E-3
1.682500E-7	6.363602E-3
1.683000E-7	6.385870E-3
1.683500E-7	6.384157E-3
1.684000E-7	6.379018E-3
1.684500E-7	6.337907E-3
1.685000E-7	6.272815E-3
1.685500E-7	6.221427E-3
1.686000E-7	6.204297E-3
1.686500E-7	6.192307E-3
1.687000E-7	6.209436E-3
1.687500E-7	6.276241E-3
1.688000E-7	6.368741E-3
1.688500E-7	6.466379E-3
1.689000E-7	6.565730E-3
1.689500E-7	6.635961E-3
1.690000E-7	6.659942E-3
1.690500E-7	6.677072E-3
1.691000E-7	6.694201E-3
1.691500E-7	6.668507E-3
1.692000E-7	6.620544E-3
1.692500E-7	6.601702E-3
1.693000E-7	6.579433E-3
1.693500E-7	6.534897E-3
1.694000E-7	6.509202E-3
1.694500E-7	6.510915E-3
1.695000E-7	6.516054E-3
1.695500E-7	6.550313E-3
1.696000E-7	6.642813E-3
1.696500E-7	6.726747E-3
1.697000E-7	6.757580E-3
1.697500E-7	6.764432E-3
1.698000E-7	6.759293E-3
1.698500E-7	6.723321E-3
1.699000E-7	6.623970E-3
1.699500E-7	6.474943E-3
1.700000E-7	6.341333E-3
1.700500E-7	6.252260E-3
1.701000E-7	6.164900E-3
1.701500E-7	6.072400E-3
1.702000E-7	6.027864E-3
1.702500E-7	6.019299E-3
1.703000E-7	6.002169E-3
1.703500E-7	5.988466E-3
1.704000E-7	6.015873E-3
1.704500E-7	6.050132E-3
1.705000E-7	6.079252E-3
1.705500E-7	6.134066E-3
1.706000E-7	6.214575E-3
1.706500E-7	6.281380E-3
1.707000E-7	6.336195E-3
1.707500E-7	6.404713E-3
1.708000E-7	6.500638E-3
1.708500E-7	6.598276E-3
1.709000E-7	6.663368E-3
1.709500E-7	6.709618E-3
1.710000E-7	6.774710E-3
1.710500E-7	6.844941E-3
1.711000E-7	6.886052E-3
1.711500E-7	6.894616E-3
1.712000E-7	6.879200E-3
1.712500E-7	6.839802E-3
1.713000E-7	6.810682E-3
1.713500E-7	6.819246E-3
1.714000E-7	6.850080E-3
1.714500E-7	6.894616E-3
1.715000E-7	6.961421E-3
1.715500E-7	7.031652E-3
1.716000E-7	7.083041E-3
1.716500E-7	7.113874E-3
1.717000E-7	7.112161E-3
1.717500E-7	7.077902E-3
1.718000E-7	7.016236E-3
1.718500E-7	6.922023E-3
1.719000E-7	6.802117E-3
1.719500E-7	6.694201E-3
1.720000E-7	6.615405E-3
1.720500E-7	6.541749E-3
1.721000E-7	6.478369E-3
1.721500E-7	6.469805E-3
1.722000E-7	6.522906E-3
1.722500E-7	6.617118E-3
1.723000E-7	6.738738E-3
1.723500E-7	6.891190E-3
1.724000E-7	7.029939E-3
1.724500E-7	7.142994E-3
1.725000E-7	7.242345E-3
1.725500E-7	7.319428E-3
1.726000E-7	7.339983E-3
1.726500E-7	7.292021E-3
1.727000E-7	7.199521E-3
1.727500E-7	7.062485E-3
1.728000E-7	6.899755E-3
1.728500E-7	6.740451E-3
1.729000E-7	6.605128E-3
1.729500E-7	6.490360E-3
1.730000E-7	6.401287E-3
1.730500E-7	6.331056E-3
1.731000E-7	6.272815E-3
1.731500E-7	6.247121E-3
1.732000E-7	6.248834E-3
1.732500E-7	6.272815E-3
1.733000E-7	6.320778E-3
1.733500E-7	6.392722E-3
1.734000E-7	6.469805E-3
1.734500E-7	6.543461E-3
1.735000E-7	6.618831E-3
1.735500E-7	6.673646E-3
1.736000E-7	6.719895E-3
1.736500E-7	6.761006E-3
1.737000E-7	6.767858E-3
1.737500E-7	6.723321E-3
1.738000E-7	6.689062E-3
1.738500E-7	6.673646E-3
1.739000E-7	6.632535E-3
1.739500E-7	6.589711E-3
1.740000E-7	6.570869E-3
1.740500E-7	6.560591E-3
1.741000E-7	6.524619E-3
1.741500E-7	6.480082E-3
1.742000E-7	6.449249E-3
1.742500E-7	6.447536E-3
1.743000E-7	6.464666E-3
1.743500E-7	6.495499E-3
1.744000E-7	6.540036E-3
1.744500E-7	6.572582E-3
1.745000E-7	6.569156E-3
1.745500E-7	6.574295E-3
1.746000E-7	6.623970E-3
1.746500E-7	6.658229E-3
1.747000E-7	6.668507E-3
1.747500E-7	6.714756E-3
1.748000E-7	6.769571E-3
1.748500E-7	6.802117E-3
1.749000E-7	6.855218E-3
1.749500E-7	6.940866E-3
1.750000E-7	6.997393E-3
1.750500E-7	7.035078E-3
1.751000E-7	7.093318E-3
1.751500E-7	7.137855E-3
1.752000E-7	7.166975E-3
1.752500E-7	7.213225E-3
1.753000E-7	7.242345E-3
1.753500E-7	7.209799E-3
1.754000E-7	7.156698E-3
1.754500E-7	7.098457E-3
1.755000E-7	7.024800E-3
1.755500E-7	6.973412E-3
1.756000E-7	6.966560E-3
1.756500E-7	6.946005E-3
1.757000E-7	6.906607E-3
1.757500E-7	6.882626E-3
1.758000E-7	6.850080E-3
1.758500E-7	6.786700E-3
1.759000E-7	6.723321E-3
1.759500E-7	6.663368E-3
1.760000E-7	6.593137E-3
1.760500E-7	6.524619E-3
1.761000E-7	6.476656E-3
1.761500E-7	6.442397E-3
1.762000E-7	6.428694E-3
1.762500E-7	6.464666E-3
1.763000E-7	6.526332E-3
1.763500E-7	6.587998E-3
1.764000E-7	6.682210E-3
1.764500E-7	6.819246E-3
1.765000E-7	6.963134E-3
1.765500E-7	7.101883E-3
1.766000E-7	7.264613E-3
1.766500E-7	7.425631E-3
1.767000E-7	7.519843E-3
1.767500E-7	7.557528E-3
1.768000E-7	7.567806E-3
1.768500E-7	7.538685E-3
1.769000E-7	7.473593E-3
1.769500E-7	7.387946E-3
1.770000E-7	7.280030E-3
1.770500E-7	7.153272E-3
1.771000E-7	7.033365E-3
1.771500E-7	6.957995E-3
1.772000E-7	6.915172E-3
1.772500E-7	6.889477E-3
1.773000E-7	6.862070E-3
1.773500E-7	6.832950E-3
1.774000E-7	6.793552E-3
1.774500E-7	6.726747E-3
1.775000E-7	6.627396E-3
1.775500E-7	6.516054E-3
1.776000E-7	6.421842E-3
1.776500E-7	6.351611E-3
1.777000E-7	6.310500E-3
1.777500E-7	6.274528E-3
1.778000E-7	6.224853E-3
1.778500E-7	6.212862E-3
1.779000E-7	6.231705E-3
1.779500E-7	6.252260E-3
1.780000E-7	6.272815E-3
1.780500E-7	6.300223E-3
1.781000E-7	6.320778E-3
1.781500E-7	6.336195E-3
1.782000E-7	6.355037E-3
1.782500E-7	6.349898E-3
1.783000E-7	6.303648E-3
1.783500E-7	6.262538E-3
1.784000E-7	6.260825E-3
1.784500E-7	6.265964E-3
1.785000E-7	6.257399E-3
1.785500E-7	6.238556E-3
1.786000E-7	6.229992E-3
1.786500E-7	6.253973E-3
1.787000E-7	6.288232E-3
1.787500E-7	6.307074E-3
1.788000E-7	6.324204E-3
1.788500E-7	6.377305E-3
1.789000E-7	6.452675E-3
1.789500E-7	6.540036E-3
1.790000E-7	6.644526E-3
1.790500E-7	6.716469E-3
1.791000E-7	6.735312E-3
1.791500E-7	6.749015E-3
1.792000E-7	6.778136E-3
1.792500E-7	6.774710E-3
1.793000E-7	6.749015E-3
1.793500E-7	6.728460E-3
1.794000E-7	6.687349E-3
1.794500E-7	6.629109E-3
1.795000E-7	6.596563E-3
1.795500E-7	6.577720E-3
1.796000E-7	6.541749E-3
1.796500E-7	6.550313E-3
1.797000E-7	6.625683E-3
1.797500E-7	6.695914E-3
1.798000E-7	6.725034E-3
1.798500E-7	6.759293E-3
1.799000E-7	6.814108E-3
1.799500E-7	6.836376E-3
1.800000E-7	6.824385E-3
1.800500E-7	6.814108E-3
1.801000E-7	6.807256E-3
1.801500E-7	6.764432E-3
1.802000E-7	6.682210E-3
1.802500E-7	6.584572E-3
1.803000E-7	6.504064E-3
1.803500E-7	6.444110E-3
1.804000E-7	6.406425E-3
1.804500E-7	6.409851E-3
1.805000E-7	6.474943E-3
1.805500E-7	6.564017E-3
1.806000E-7	6.630822E-3
1.806500E-7	6.675359E-3
1.807000E-7	6.713044E-3
1.807500E-7	6.713044E-3
1.808000E-7	6.666794E-3
1.808500E-7	6.570869E-3
1.809000E-7	6.447536E-3
1.809500E-7	6.317352E-3
1.810000E-7	6.207723E-3
1.810500E-7	6.113511E-3
1.811000E-7	6.027864E-3
1.811500E-7	5.974762E-3
1.812000E-7	5.986753E-3
1.812500E-7	6.062123E-3
1.813000E-7	6.194020E-3
1.813500E-7	6.360176E-3
1.814000E-7	6.548600E-3
1.814500E-7	6.731886E-3
1.815000E-7	6.882626E-3
1.815500E-7	6.971699E-3
1.816000E-7	6.993967E-3
1.816500E-7	6.946005E-3
1.817000E-7	6.826098E-3
1.817500E-7	6.673646E-3
1.818000E-7	6.519480E-3
1.818500E-7	6.358463E-3
1.819000E-7	6.209436E-3
1.819500E-7	6.113511E-3
1.820000E-7	6.075826E-3
1.820500E-7	6.050132E-3
1.821000E-7	6.056984E-3
1.821500E-7	6.127215E-3
1.822000E-7	6.248834E-3
1.822500E-7	6.411564E-3
1.823000E-7	6.625683E-3
1.823500E-7	6.870635E-3
1.824000E-7	7.096744E-3
1.824500E-7	7.283456E-3
1.825000E-7	7.418779E-3
1.825500E-7	7.482158E-3
1.826000E-7	7.477019E-3
1.826500E-7	7.420492E-3
1.827000E-7	7.314289E-3
1.827500E-7	7.168688E-3
1.828000E-7	7.029939E-3
1.828500E-7	6.922023E-3
1.829000E-7	6.827811E-3
1.829500E-7	6.743877E-3
1.830000E-7	6.716469E-3
1.830500E-7	6.767858E-3
1.831000E-7	6.858644E-3
1.831500E-7	6.944292E-3
1.832000E-7	7.036791E-3
1.832500E-7	7.117300E-3
1.833000E-7	7.161836E-3
1.833500E-7	7.185818E-3
1.834000E-7	7.201234E-3
1.834500E-7	7.177253E-3
1.835000E-7	7.095031E-3
1.835500E-7	6.993967E-3
1.836000E-7	6.903181E-3
1.836500E-7	6.810682E-3
1.837000E-7	6.731886E-3
1.837500E-7	6.728460E-3
1.838000E-7	6.808969E-3
1.838500E-7	6.901468E-3
1.839000E-7	6.966560E-3
1.839500E-7	7.016236E-3
1.840000E-7	7.052208E-3
1.840500E-7	7.059059E-3
1.841000E-7	7.036791E-3
1.841500E-7	6.978551E-3
1.842000E-7	6.884339E-3
1.842500E-7	6.781562E-3
1.843000E-7	6.670220E-3
1.843500E-7	6.534897E-3
1.844000E-7	6.384157E-3
1.844500E-7	6.248834E-3
1.845000E-7	6.127215E-3
1.845500E-7	6.029576E-3
1.846000E-7	5.991892E-3
1.846500E-7	6.009021E-3
1.847000E-7	6.043280E-3
1.847500E-7	6.094669E-3
1.848000E-7	6.176890E-3
1.848500E-7	6.269389E-3
1.849000E-7	6.379018E-3
1.849500E-7	6.524619E-3
1.850000E-7	6.683923E-3
1.850500E-7	6.786700E-3
1.851000E-7	6.822672E-3
1.851500E-7	6.826098E-3
1.852000E-7	6.793552E-3
1.852500E-7	6.707905E-3
1.853000E-7	6.591424E-3
1.853500E-7	6.473231E-3
1.854000E-7	6.365315E-3
1.854500E-7	6.267677E-3
1.855000E-7	6.192307E-3
1.855500E-7	6.147770E-3
1.856000E-7	6.135779E-3
1.856500E-7	6.170038E-3
1.857000E-7	6.250547E-3
1.857500E-7	6.385870E-3
1.858000E-7	6.546887E-3
1.858500E-7	6.699340E-3
1.859000E-7	6.839802E-3
1.859500E-7	6.971699E-3
1.860000E-7	7.076189E-3
1.860500E-7	7.129290E-3
1.861000E-7	7.132716E-3
1.861500E-7	7.083041E-3
1.862000E-7	6.975125E-3
1.862500E-7	6.841515E-3
1.863000E-7	6.706192E-3
1.863500E-7	6.565730E-3
1.864000E-7	6.454388E-3
1.864500E-7	6.408138E-3
1.865000E-7	6.408138E-3
1.865500E-7	6.404713E-3
1.866000E-7	6.432120E-3
1.866500E-7	6.512628E-3
1.867000E-7	6.601702E-3
1.867500E-7	6.675359E-3
1.868000E-7	6.771284E-3
1.868500E-7	6.884339E-3
1.869000E-7	6.961421E-3
1.869500E-7	6.995680E-3
1.870000E-7	7.021375E-3
1.870500E-7	7.038504E-3
1.871000E-7	7.017949E-3
1.871500E-7	6.951144E-3
1.872000E-7	6.858644E-3
1.872500E-7	6.759293E-3
1.873000E-7	6.675359E-3
1.873500E-7	6.608554E-3
1.874000E-7	6.557165E-3
1.874500E-7	6.524619E-3
1.875000E-7	6.490360E-3
1.875500E-7	6.442397E-3
1.876000E-7	6.413277E-3
1.876500E-7	6.433833E-3
1.877000E-7	6.471518E-3
1.877500E-7	6.486934E-3
1.878000E-7	6.493786E-3
1.878500E-7	6.526332E-3
1.879000E-7	6.565730E-3
1.879500E-7	6.582859E-3
1.880000E-7	6.605128E-3
1.880500E-7	6.649664E-3
1.881000E-7	6.680497E-3
1.881500E-7	6.706192E-3
1.882000E-7	6.761006E-3
1.882500E-7	6.822672E-3
1.883000E-7	6.824385E-3
1.883500E-7	6.769571E-3
1.884000E-7	6.709618E-3
1.884500E-7	6.647951E-3
1.885000E-7	6.538323E-3
1.885500E-7	6.401287E-3
1.886000E-7	6.291658E-3
1.886500E-7	6.209436E-3
1.887000E-7	6.127215E-3
1.887500E-7	6.062123E-3
1.888000E-7	6.063835E-3
1.888500E-7	6.123789E-3
1.889000E-7	6.175177E-3
1.889500E-7	6.223140E-3
1.890000E-7	6.320778E-3
1.890500E-7	6.452675E-3
1.891000E-7	6.538323E-3
1.891500E-7	6.581146E-3
1.892000E-7	6.625683E-3
1.892500E-7	6.659942E-3
1.893000E-7	6.671933E-3
1.893500E-7	6.695914E-3
1.894000E-7	6.738738E-3
1.894500E-7	6.778136E-3
1.895000E-7	6.826098E-3
1.895500E-7	6.870635E-3
1.896000E-7	6.916885E-3
1.896500E-7	6.983690E-3
1.897000E-7	7.060772E-3
1.897500E-7	7.113874E-3
1.898000E-7	7.139568E-3
1.898500E-7	7.158411E-3
1.899000E-7	7.129290E-3
1.899500E-7	7.031652E-3
1.900000E-7	6.930588E-3
1.900500E-7	6.843228E-3
1.901000E-7	6.743877E-3
1.901500E-7	6.627396E-3
1.902000E-7	6.504064E-3
1.902500E-7	6.375592E-3
1.903000E-7	6.265964E-3
1.903500E-7	6.202584E-3
1.904000E-7	6.163187E-3
1.904500E-7	6.132353E-3
1.905000E-7	6.113511E-3
1.905500E-7	6.104946E-3
1.906000E-7	6.111798E-3
1.906500E-7	6.142631E-3
1.907000E-7	6.188881E-3
1.907500E-7	6.219714E-3
1.908000E-7	6.238556E-3
1.908500E-7	6.231705E-3
1.909000E-7	6.188881E-3
1.909500E-7	6.142631E-3
1.910000E-7	6.166612E-3
1.910500E-7	6.226566E-3
1.911000E-7	6.274528E-3
1.911500E-7	6.329343E-3
1.912000E-7	6.411564E-3
1.912500E-7	6.474943E-3
1.913000E-7	6.495499E-3
1.913500E-7	6.512628E-3
1.914000E-7	6.545174E-3
1.914500E-7	6.565730E-3
1.915000E-7	6.570869E-3
1.915500E-7	6.574295E-3
1.916000E-7	6.569156E-3
1.916500E-7	6.543461E-3
1.917000E-7	6.521193E-3
1.917500E-7	6.524619E-3
1.918000E-7	6.543461E-3
1.918500E-7	6.576008E-3
1.919000E-7	6.635961E-3
1.919500E-7	6.733599E-3
1.920000E-7	6.856931E-3
1.920500E-7	6.980264E-3
1.921000E-7	7.089893E-3
1.921500E-7	7.180679E-3
1.922000E-7	7.226929E-3
1.922500E-7	7.204660E-3
1.923000E-7	7.144707E-3
1.923500E-7	7.084754E-3
1.924000E-7	7.016236E-3
1.924500E-7	6.946005E-3
1.925000E-7	6.906607E-3
1.925500E-7	6.880913E-3
1.926000E-7	6.831237E-3
1.926500E-7	6.784987E-3
1.927000E-7	6.755867E-3
1.927500E-7	6.713044E-3
1.928000E-7	6.646238E-3
1.928500E-7	6.586285E-3
1.929000E-7	6.528045E-3
1.929500E-7	6.462953E-3
1.930000E-7	6.397861E-3
1.930500E-7	6.324204E-3
1.931000E-7	6.240269E-3
1.931500E-7	6.176890E-3
1.932000E-7	6.147770E-3
1.932500E-7	6.122076E-3
1.933000E-7	6.111798E-3
1.933500E-7	6.156335E-3
1.934000E-7	6.243695E-3
1.934500E-7	6.348185E-3
1.935000E-7	6.469805E-3
1.935500E-7	6.589711E-3
1.936000E-7	6.675359E-3
1.936500E-7	6.738738E-3
1.937000E-7	6.803830E-3
1.937500E-7	6.853505E-3
1.938000E-7	6.850080E-3
1.938500E-7	6.812395E-3
1.939000E-7	6.761006E-3
1.939500E-7	6.716469E-3
1.940000E-7	6.673646E-3
1.940500E-7	6.620544E-3
1.941000E-7	6.558878E-3
1.941500E-7	6.495499E-3
1.942000E-7	6.438972E-3
1.942500E-7	6.379018E-3
1.943000E-7	6.327630E-3
1.943500E-7	6.308787E-3
1.944000E-7	6.307074E-3
1.944500E-7	6.315639E-3
1.945000E-7	6.329343E-3
1.945500E-7	6.348185E-3
1.946000E-7	6.367028E-3
1.946500E-7	6.382444E-3
1.947000E-7	6.385870E-3
1.947500E-7	6.382444E-3
1.948000E-7	6.389296E-3
1.948500E-7	6.406425E-3
1.949000E-7	6.414990E-3
1.949500E-7	6.421842E-3
1.950000E-7	6.437259E-3
1.950500E-7	6.466379E-3
1.951000E-7	6.502351E-3
1.951500E-7	6.531471E-3
1.952000E-7	6.553739E-3
1.952500E-7	6.557165E-3
1.953000E-7	6.526332E-3
1.953500E-7	6.471518E-3
1.954000E-7	6.433833E-3
1.954500E-7	6.420129E-3
1.955000E-7	6.401287E-3
1.955500E-7	6.365315E-3
1.956000E-7	6.346472E-3
1.956500E-7	6.353324E-3
1.957000E-7	6.363602E-3
1.957500E-7	6.377305E-3
1.958000E-7	6.420129E-3
1.958500E-7	6.497212E-3
1.959000E-7	6.570869E-3
1.959500E-7	6.618831E-3
1.960000E-7	6.668507E-3
1.960500E-7	6.707905E-3
1.961000E-7	6.699340E-3
1.961500E-7	6.654803E-3
1.962000E-7	6.587998E-3
1.962500E-7	6.495499E-3
1.963000E-7	6.389296E-3
1.963500E-7	6.301936E-3
1.964000E-7	6.224853E-3
1.964500E-7	6.134066E-3
1.965000E-7	6.067261E-3
1.965500E-7	6.099807E-3
1.966000E-7	6.236843E-3
1.966500E-7	6.403000E-3
1.967000E-7	6.541749E-3
1.967500E-7	6.659942E-3
1.968000E-7	6.766145E-3
1.968500E-7	6.831237E-3
1.969000E-7	6.846654E-3
1.969500E-7	6.853505E-3
1.970000E-7	6.858644E-3
1.970500E-7	6.832950E-3
1.971000E-7	6.766145E-3
1.971500E-7	6.680497E-3
1.972000E-7	6.603415E-3
1.972500E-7	6.543461E-3
1.973000E-7	6.497212E-3
1.973500E-7	6.474943E-3
1.974000E-7	6.507490E-3
1.974500E-7	6.601702E-3
1.975000E-7	6.701053E-3
1.975500E-7	6.790126E-3
1.976000E-7	6.882626E-3
1.976500E-7	6.966560E-3
1.977000E-7	7.011097E-3
1.977500E-7	7.028226E-3
1.978000E-7	7.055634E-3
1.978500E-7	7.084754E-3
1.979000E-7	7.119013E-3
1.979500E-7	7.151559E-3
1.980000E-7	7.163549E-3
1.980500E-7	7.146420E-3
1.981000E-7	7.125865E-3
1.981500E-7	7.115587E-3
1.982000E-7	7.077902E-3
1.982500E-7	6.999106E-3
1.983000E-7	6.899755E-3
1.983500E-7	6.788413E-3
1.984000E-7	6.665081E-3
1.984500E-7	6.545174E-3
1.985000E-7	6.447536E-3
1.985500E-7	6.372166E-3
1.986000E-7	6.313926E-3
1.986500E-7	6.298510E-3
1.987000E-7	6.312213E-3
1.987500E-7	6.329343E-3
1.988000E-7	6.360176E-3
1.988500E-7	6.418416E-3
1.989000E-7	6.459527E-3
1.989500E-7	6.466379E-3
1.990000E-7	6.483508E-3
1.990500E-7	6.517767E-3
1.991000E-7	6.541749E-3
1.991500E-7	6.548600E-3
1.992000E-7	6.550313E-3
1.992500E-7	6.524619E-3
1.993000E-7	6.466379E-3
1.993500E-7	6.391009E-3
1.994000E-7	6.305361E-3
1.994500E-7	6.207723E-3
1.995000E-7	6.127215E-3
1.995500E-7	6.046706E-3
1.996000E-7	5.967910E-3
1.996500E-7	5.894253E-3
1.997000E-7	5.824022E-3
1.997500E-7	5.777773E-3
1.998000E-7	5.793189E-3
1.998500E-7	5.848004E-3
1.999000E-7	5.899392E-3
1.999500E-7	5.973049E-3
2.000000E-7	6.104946E-3
