fit_time[ns] Functional_fit[mV] Thermal_fit[mV]
6.600000 68.786613 68.753714
6.650000 71.805190 68.235006
6.700000 74.630374 67.720460
6.750000 77.094014 67.210039
6.800000 79.047269 66.703708
6.850000 80.368047 66.201430
6.900000 80.967061 65.703169
6.950000 80.792186 65.208889
7.000000 79.830920 64.718556
7.050000 78.110829 64.232134
7.100000 75.697955 63.749589
7.150000 72.693291 63.270887
7.200000 69.227503 62.795994
7.250000 65.454166 62.324877
7.300000 61.541884 61.857503
7.350000 57.665684 61.393839
7.400000 53.998119 60.933852
7.450000 50.700548 60.477511
7.500000 47.915016 60.024783
7.550000 45.757158 59.575637
7.600000 44.310465 59.130043
7.650000 43.622215 58.687969
7.700000 43.701245 58.249384
7.750000 44.517689 57.814259
7.800000 46.004670 57.382564
7.850000 48.061861 56.954269
7.900000 50.560723 56.529344
7.950000 53.351139 56.107761
8.000000 56.269120 55.689491
8.050000 59.145167 55.274505
8.100000 61.812877 54.862776
8.150000 64.117349 54.454274
8.200000 65.922972 54.048974
8.250000 67.120192 53.646846
8.300000 67.630934 53.247865
8.350000 67.412403 52.852003
8.400000 66.459083 52.459233
8.450000 64.802834 52.069530
8.500000 62.511100 51.682867
8.550000 59.683330 51.299219
8.600000 56.445781 50.918559
8.650000 52.945009 50.540863
8.700000 49.340341 50.166106
8.750000 45.795759 49.794262
8.800000 42.471567 49.425307
8.850000 39.516298 49.059216
8.900000 37.059249 48.695966
8.950000 35.204024 48.335533
9.000000 34.023415 47.977892
9.050000 33.555859 47.623021
9.100000 33.803656 47.270896
9.150000 34.733024 46.921493
9.200000 36.275979 46.574792
9.250000 38.333938 46.230767
9.300000 40.782854 45.889398
9.350000 43.479613 45.550663
9.400000 46.269372 45.214538
9.450000 48.993448 44.881003
9.500000 51.497371 44.550035
9.550000 53.638679 44.221614
9.600000 55.294073 43.895718
9.650000 56.365564 43.572327
9.700000 56.785314 43.251419
9.750000 56.518925 42.932975
9.800000 55.567019 42.616972
9.850000 53.965038 42.303393
9.900000 51.781287 41.992215
9.950000 49.113313 41.683421
10.000000 46.082833 41.376989
10.050000 42.829454 41.072900
10.100000 39.503520 40.771136
10.150000 36.258450 40.471677
10.200000 33.242955 40.174504
10.250000 30.593536 39.879598
10.300000 28.427625 39.586941
10.350000 26.837738 39.296515
10.400000 25.886903 39.008301
10.450000 25.605612 38.722280
10.500000 25.990432 38.438436
10.550000 27.004338 38.156750
10.600000 28.578748 37.877205
10.650000 30.617139 37.599783
10.700000 33.000072 37.324467
10.750000 35.591340 37.051240
10.800000 38.244948 36.780084
10.850000 40.812540 36.510984
10.900000 43.150928 36.243922
10.950000 45.129310 35.978882
11.000000 46.635831 35.715848
11.050000 47.583158 35.454803
11.100000 47.912776 35.195730
11.150000 47.597822 34.938616
11.200000 46.644283 34.683442
11.250000 45.090543 34.430194
11.300000 43.005283 34.178857
11.350000 40.483857 33.929414
11.400000 37.643342 33.681851
11.450000 34.616504 33.436153
11.500000 31.545002 33.192304
11.550000 28.572178 32.950289
11.600000 25.835788 32.710095
11.650000 23.461056 32.471706
11.700000 21.554395 32.235107
11.750000 20.198110 32.000286
11.800000 19.446344 31.767226
11.850000 19.322469 31.535915
11.900000 19.818055 31.306339
11.950000 20.893440 31.078482
12.000000 22.479889 30.852333
12.050000 24.483213 30.627877
12.100000 26.788654 30.405100
12.150000 29.266790 30.183989
12.200000 31.780162 29.964532
12.250000 34.190261 29.746715
12.300000 36.364551 29.530524
12.350000 38.183144 29.315948
12.400000 39.544810 29.102973
12.450000 40.372011 28.891586
12.500000 40.614713 28.681775
12.550000 40.252788 28.473528
12.600000 39.296886 28.266832
12.650000 37.787755 28.061675
12.700000 35.794028 27.858044
12.750000 33.408620 27.655929
12.800000 30.743909 27.455316
12.850000 27.925949 27.256194
12.900000 25.088029 27.058551
12.950000 22.363889 26.862376
13.000000 19.880947 26.667656
13.050000 17.753878 26.474382
13.100000 16.078872 26.282540
13.150000 14.928851 26.092121
13.200000 14.349884 25.903112
13.250000 14.358991 25.715504
13.300000 14.943410 25.529284
13.350000 16.061389 25.344442
13.400000 17.644438 25.160967
13.450000 19.600918 24.978849
13.500000 21.820793 24.798077
13.550000 24.181287 24.618640
13.600000 26.553156 24.440528
13.650000 28.807264 24.263731
13.700000 30.821117 24.088238
13.750000 32.485030 23.914040
13.800000 33.707622 23.741125
13.850000 34.420348 23.569485
13.900000 34.580866 23.399110
13.950000 34.175050 23.229989
14.000000 33.217573 23.062112
14.050000 31.751026 22.895471
14.100000 29.843629 22.730055
14.150000 27.585653 22.565856
14.200000 25.084750 22.402863
14.250000 22.460415 22.241067
14.300000 19.837885 22.080460
14.350000 17.341768 21.921031
14.400000 15.089741 21.762772
14.450000 13.186624 21.605674
14.500000 11.719136 21.449727
14.550000 10.751588 21.294924
14.600000 10.322740 21.141254
14.650000 10.443953 20.988710
14.700000 11.098750 20.837283
14.750000 12.243775 20.686963
14.800000 13.811124 20.537744
14.850000 15.711893 20.389615
14.900000 17.840776 20.242569
14.950000 20.081479 20.096598
15.000000 22.312655 19.951693
15.050000 24.414071 19.807846
15.100000 26.272687 19.665049
15.150000 27.788345 19.523294
15.200000 28.878777 19.382572
15.250000 29.483684 19.242877
15.300000 29.567682 19.104200
15.350000 29.121976 18.966533
15.400000 28.164676 18.829869
15.450000 26.739755 18.694200
15.500000 24.914696 18.559518
15.550000 22.776967 18.425816
15.600000 20.429495 18.293087
15.650000 17.985385 18.161322
15.700000 15.562144 18.030516
15.750000 13.275710 17.900659
15.800000 11.234595 17.771746
15.850000 9.534423 17.643769
15.900000 8.253153 17.516721
15.950000 7.447213 17.390594
16.000000 7.148751 17.265383
16.050000 7.364120 17.141079
16.100000 8.073676 17.017676
16.150000 9.232902 16.895167
16.200000 10.774774 16.773546
16.250000 12.613264 16.652805
16.300000 14.647783 16.532939
16.350000 16.768341 16.413940
16.400000 18.861163 16.295801
16.450000 20.814459 16.178517
16.500000 22.524080 16.062081
16.550000 23.898750 15.946487
16.600000 24.864624 15.831727
16.650000 25.368944 15.717796
16.700000 25.382610 15.604688
16.750000 24.901536 15.492397
16.800000 23.946743 15.380915
16.850000 22.563170 15.270238
16.900000 20.817290 15.160359
16.950000 18.793638 15.051271
17.000000 16.590448 14.942970
17.050000 14.314613 14.835450
17.100000 12.076237 14.728703
17.150000 9.983040 14.622725
17.200000 8.134922 14.517510
17.250000 6.618938 14.413052
17.300000 5.504956 14.309345
17.350000 4.842201 14.206385
17.400000 4.656859 14.104164
17.450000 4.950865 14.002678
17.500000 5.701914 13.901921
17.550000 6.864712 13.801887
17.600000 8.373374 13.702572
17.650000 10.144857 13.603970
17.700000 12.083245 13.506076
17.750000 14.084668 13.408884
17.800000 16.042591 13.312388
17.850000 17.853229 13.216585
17.900000 19.420776 13.121468
17.950000 20.662224 13.027033
18.000000 21.511503 12.933274
18.050000 21.922740 12.840187
18.100000 21.872491 12.747767
18.150000 21.360814 12.656007
18.200000 20.411161 12.564905
18.250000 19.069073 12.474454
18.300000 17.399773 12.384649
18.350000 15.484770 12.295487
18.400000 13.417654 12.206963
18.450000 11.299302 12.119070
18.500000 9.232738 12.031806
18.550000 7.317905 11.945164
18.600000 5.646619 11.859142
18.650000 4.297966 11.773733
18.700000 3.334353 11.688934
18.750000 2.798432 11.604739
18.800000 2.711030 11.521145
18.850000 3.070205 11.438148
18.900000 3.851447 11.355741
18.950000 5.009028 11.273922
19.000000 6.478419 11.192686
19.050000 8.179643 11.112028
19.100000 10.021395 11.031945
19.150000 11.905725 10.952431
19.200000 13.733019 10.873484
19.250000 15.407054 10.795098
19.300000 16.839853 10.717270
19.350000 17.956095 10.639995
19.400000 18.696869 10.563270
19.450000 19.022580 10.487089
19.500000 18.914859 10.411450
19.550000 18.377390 10.336349
19.600000 17.435623 10.261780
19.650000 16.135377 10.187742
19.700000 14.540426 10.114228
19.750000 12.729187 10.041237
19.800000 10.790676 9.968763
19.850000 8.819955 9.896803
19.900000 6.913291 9.825354
19.950000 5.163273 9.754410
20.000000 3.654150 9.683970
20.050000 2.457599 9.614029
20.100000 1.629159 9.544584
20.150000 1.205497 9.475630
20.200000 1.202640 9.407164
20.250000 1.615264 9.339183
20.300000 2.417061 9.271683
20.350000 3.562175 9.204661
20.400000 4.987614 9.138113
20.450000 6.616518 9.072035
20.500000 8.362119 9.006425
20.550000 10.132179 8.941278
20.600000 11.833682 8.876592
20.650000 13.377551 8.812362
20.700000 14.683132 8.748587
20.750000 15.682245 8.685262
20.800000 16.322565 8.622383
20.850000 16.570204 8.559949
20.900000 16.411333 8.497955
20.950000 15.852791 8.436399
21.000000 14.921635 8.375277
21.050000 13.663678 8.314585
21.100000 12.141080 8.254322
21.150000 10.429120 8.194483
21.200000 8.612329 8.135067
21.250000 6.780162 8.076068
21.300000 5.022447 8.017486
21.350000 3.424838 7.959315
21.400000 2.064498 7.901555
21.450000 1.006231 7.844201
21.500000 0.299265 7.787250
21.550000 -0.025169 7.730701
21.600000 0.044667 7.674549
21.650000 0.500518 7.618792
21.700000 1.314648 7.563427
21.750000 2.441339 7.508451
21.800000 3.819287 7.453861
21.850000 5.374780 7.399656
21.900000 7.025491 7.345830
21.950000 8.684683 7.292383
22.000000 10.265623 7.239312
22.050000 11.685968 7.186612
22.100000 12.871919 7.134283
22.150000 13.761907 7.082321
22.200000 14.309661 7.030724
22.250000 14.486469 6.979488
22.300000 14.282553 6.928612
22.350000 13.707470 6.878092
22.400000 12.789538 6.827927
22.450000 11.574315 6.778113
22.500000 10.122206 6.728648
22.550000 8.505340 6.679530
22.600000 6.803858 6.630755
22.650000 5.101820 6.582323
22.700000 3.482934 6.534229
22.750000 2.026314 6.486472
22.800000 0.802504 6.439049
22.850000 -0.130057 6.391958
22.900000 -0.727934 6.345197
22.950000 -0.964824 6.298762
23.000000 -0.832804 6.252652
23.050000 -0.342649 6.206865
23.100000 0.476808 6.161397
23.150000 1.580217 6.116247
23.200000 2.908086 6.071413
23.250000 4.389861 6.026892
23.300000 5.947548 5.982682
23.350000 7.499699 5.938780
23.400000 8.965547 5.895185
23.450000 10.269097 5.851895
23.500000 11.342942 5.808906
23.550000 12.131643 5.766218
23.600000 12.594471 5.723827
23.650000 12.707403 5.681731
23.700000 12.464255 5.639930
23.750000 11.876914 5.598419
23.800000 10.974646 5.557199
23.850000 9.802536 5.516265
23.900000 8.419126 5.475616
23.950000 6.893391 5.435251
24.000000 5.301196 5.395167
24.050000 3.721424 5.355362
24.100000 2.231967 5.315834
24.150000 0.905790 5.276581
24.200000 -0.192744 5.237602
24.250000 -1.011082 5.198894
24.300000 -1.511096 5.160455
24.350000 -1.670936 5.122283
24.400000 -1.486064 5.084377
24.450000 -0.969396 5.046734
24.500000 -0.150572 5.009353
24.550000 0.925630 4.972232
24.600000 2.201627 4.935369
24.650000 3.610012 4.898762
24.700000 5.077011 4.862409
24.750000 6.526244 4.826309
24.800000 7.882609 4.790459
24.850000 9.076075 4.754859
24.900000 10.045201 4.719505
24.950000 10.740209 4.684397
25.000000 11.125444 4.649533
25.050000 11.181115 4.614910
25.100000 10.904219 4.580528
25.150000 10.308615 4.546383
25.200000 9.424239 4.512476
25.250000 8.295515 4.478804
25.300000 6.979037 4.445365
25.350000 5.540644 4.412158
25.400000 4.052045 4.379181
25.450000 2.587162 4.346433
25.500000 1.218375 4.313911
25.550000 0.012866 4.281615
25.600000 -0.970754 4.249542
25.650000 -1.685375 4.217692
25.700000 -2.097716 4.186061
25.750000 -2.189946 4.154650
25.800000 -1.960510 4.123456
25.850000 -1.424132 4.092478
25.900000 -0.610992 4.061714
25.950000 0.434874 4.031163
26.000000 1.657870 4.000823
26.050000 2.993709 3.970693
26.100000 4.372711 3.940771
26.150000 5.723349 3.911057
26.200000 6.975886 3.881547
26.250000 8.065892 3.852241
26.300000 8.937481 3.823138
26.350000 9.546100 3.794236
26.400000 9.860728 3.765533
26.450000 9.865386 3.737028
26.500000 9.559869 3.708721
26.550000 8.959685 3.680608
26.600000 8.095194 3.652690
26.650000 7.010001 3.624964
26.700000 5.758683 3.597430
26.750000 4.403978 3.570085
26.800000 3.013567 3.542930
26.850000 1.656628 3.515961
26.900000 0.400323 3.489178
26.950000 -0.693590 3.462580
27.000000 -1.571858 3.436165
27.050000 -2.192386 3.409933
27.100000 -2.526320 3.383881
27.150000 -2.559438 3.358008
27.200000 -2.292806 3.332314
27.250000 -1.742648 3.306797
27.300000 -0.939455 3.281455
27.350000 0.073630 3.256288
27.400000 1.243051 3.231294
27.450000 2.507602 3.206472
27.500000 3.801565 3.181821
27.550000 5.058051 3.157339
27.600000 6.212396 3.133026
27.650000 7.205422 3.108880
27.700000 7.986410 3.084900
27.750000 8.515620 3.061086
27.800000 8.766257 3.037434
27.850000 8.725762 3.013946
27.900000 8.396380 2.990619
27.950000 7.794979 2.967452
28.000000 6.952123 2.944444
28.050000 5.910460 2.921594
28.100000 4.722509 2.898902
28.150000 3.447949 2.876365
28.200000 2.150569 2.853983
28.250000 0.895018 2.831754
28.300000 -0.256475 2.809679
28.350000 -1.247235 2.787754
28.400000 -2.028984 2.765980
28.450000 -2.564249 2.744356
28.500000 -2.828203 2.722880
28.550000 -2.809864 2.701551
28.600000 -2.512582 2.680369
28.650000 -1.953807 2.659331
28.700000 -1.164133 2.638438
28.750000 -0.185690 2.617689
28.800000 0.930045 2.597081
28.850000 2.124898 2.576615
28.900000 3.336973 2.556289
28.950000 4.503804 2.536102
29.000000 5.565521 2.516054
29.050000 6.467864 2.496142
29.100000 7.164908 2.476368
29.150000 7.621345 2.456728
29.200000 7.814222 2.437223
29.250000 7.734040 2.417852
29.300000 7.385179 2.398613
29.350000 6.785601 2.379506
29.400000 5.965883 2.360530
29.450000 4.967605 2.341683
29.500000 3.841194 2.322965
29.550000 2.643332 2.304376
29.600000 1.434051 2.285913
29.650000 0.273684 2.267577
29.700000 -0.780192 2.249366
29.750000 -1.675660 2.231280
29.800000 -2.369063 2.213317
29.850000 -2.827171 2.195477
29.900000 -3.028818 2.177759
29.950000 -2.965915 2.160162
30.000000 -2.643797 2.142686
30.050000 -2.080886 2.125328
30.100000 -1.307702 2.108089
30.150000 -0.365258 2.090968
30.200000 0.697070 2.073964
30.250000 1.824074 2.057076
30.300000 2.957544 2.040303
30.350000 4.039224 2.023645
30.400000 5.013763 2.007100
30.450000 5.831503 1.990668
30.500000 6.450964 1.974348
30.550000 6.840907 1.958140
30.600000 6.981866 1.942042
30.650000 6.867074 1.926054
30.700000 6.502750 1.910175
30.750000 5.907719 1.894404
30.800000 5.112401 1.878741
30.850000 4.157214 1.863184
30.900000 3.090483 1.847734
30.950000 1.965954 1.832389
31.000000 0.840046 1.817148
31.050000 -0.231011 1.802011
31.100000 -1.194029 1.786977
31.150000 -2.001537 1.772046
31.200000 -2.614155 1.757217
31.250000 -3.002550 1.742488
31.300000 -3.148876 1.727859
31.350000 -3.047619 1.713331
31.400000 -2.705817 1.698901
31.450000 -2.142649 1.684569
31.500000 -1.388400 1.670335
31.550000 -0.482880 1.656197
31.600000 0.526638 1.642156
31.650000 1.587847 1.628211
31.700000 2.646077 1.614360
31.750000 3.647074 1.600603
31.800000 4.539744 1.586940
31.850000 5.278724 1.573370
31.900000 5.826653 1.559892
31.950000 6.156020 1.546506
32.000000 6.250517 1.533210
32.050000 6.105804 1.520005
32.100000 5.729676 1.506890
32.150000 5.141610 1.493864
32.200000 4.371723 1.480926
32.250000 3.459195 1.468076
32.300000 2.450248 1.455314
32.350000 1.395765 1.442638
32.400000 0.348699 1.430048
32.450000 -0.638620 1.417544
32.500000 -1.517134 1.405124
32.550000 -2.243519 1.392789
32.600000 -2.782354 1.380538
32.650000 -3.107877 1.368369
32.700000 -3.205241 1.356284
32.750000 -3.071216 1.344280
32.800000 -2.714295 1.332357
32.850000 -2.154209 1.320516
32.900000 -1.420877 1.308755
32.950000 -0.552838 1.297073
33.000000 0.404734 1.285471
33.050000 1.402355 1.273948
33.100000 2.388751 1.262502
33.150000 3.313466 1.251134
33.200000 4.129409 1.239843
33.250000 4.795223 1.228629
33.300000 5.277353 1.217491
33.350000 5.551703 1.206428
33.400000 5.604814 1.195440
33.450000 5.434495 1.184526
33.500000 5.049878 1.173686
33.550000 4.470902 1.162920
33.600000 3.727256 1.152227
33.650000 2.856824 1.141606
33.700000 1.903733 1.131057
33.750000 0.916086 1.120579
33.800000 -0.056488 1.110172
33.850000 -0.965356 1.099836
33.900000 -1.765340 1.089570
33.950000 -2.416982 1.079373
34.000000 -2.888519 1.069245
34.050000 -3.157452 1.059185
34.100000 -3.211642 1.049194
34.150000 -3.049872 1.039270
34.200000 -2.681863 1.029413
34.250000 -2.127723 1.019623
34.300000 -1.416885 1.009899
34.350000 -0.586567 1.000241
34.400000 0.320141 0.990648
34.450000 1.256494 0.981120
34.500000 2.174471 0.971656
34.550000 3.027212 0.962256
34.600000 3.771386 0.952920
34.650000 4.369369 0.943647
34.700000 4.791116 0.934436
34.750000 5.015651 0.925288
34.800000 5.032085 0.916201
34.850000 4.840115 0.907176
34.900000 4.449994 0.898211
34.950000 3.881958 0.889308
35.000000 3.165157 0.880464
35.050000 2.336136 0.871680
35.100000 1.436947 0.862955
35.150000 0.513001 0.854289
35.200000 -0.389256 0.845682
35.250000 -1.224689 0.837132
35.300000 -1.951762 0.828641
35.350000 -2.534615 0.820206
35.400000 -2.944858 0.811829
35.450000 -3.162971 0.803508
35.500000 -3.179249 0.795243
35.550000 -2.994247 0.787034
35.600000 -2.618703 0.778880
35.650000 -2.072947 0.770781
35.700000 -1.385824 0.762737
35.750000 -0.593197 0.754746
35.800000 0.263906 0.746810
35.850000 1.141390 0.738927
35.900000 1.994341 0.731098
35.950000 2.779303 0.723321
36.000000 3.456473 0.715596
36.050000 3.991693 0.707924
36.100000 4.358159 0.700303
36.150000 4.537738 0.692733
36.200000 4.521845 0.685215
36.250000 4.311835 0.677747
36.300000 3.918884 0.670329
36.350000 3.363377 0.662961
36.400000 2.673836 0.655643
36.450000 1.885431 0.648374
36.500000 1.038174 0.641154
36.550000 0.174866 0.633983
36.600000 -0.661079 0.626860
36.650000 -1.427837 0.619784
36.700000 -2.087283 0.612757
36.750000 -2.606901 0.605776
36.800000 -2.961410 0.598843
36.850000 -3.134000 0.591956
36.900000 -3.117149 0.585115
36.950000 -2.912959 0.578321
37.000000 -2.533001 0.571572
37.050000 -1.997687 0.564868
37.100000 -1.335192 0.558210
37.150000 -0.579994 0.551596
37.200000 0.228903 0.545027
37.250000 1.049965 0.538502
37.300000 1.841243 0.532020
37.350000 2.562495 0.525583
37.400000 3.177220 0.519188
37.450000 3.654484 0.512837
37.500000 3.970461 0.506528
37.550000 4.109604 0.500261
37.600000 4.065395 0.494037
37.650000 3.840628 0.487854
37.700000 3.447228 0.481713
37.750000 2.905599 0.475613
37.800000 2.243556 0.469554
37.850000 1.494877 0.463536
37.900000 0.697566 0.457558
37.950000 -0.108087 0.451620
38.000000 -0.881563 0.445722
38.050000 -1.584159 0.439863
38.100000 -2.180946 0.434044
38.150000 -2.642512 0.428264
38.200000 -2.946429 0.422523
38.250000 -3.078354 0.416820
38.300000 -3.032717 0.411155
38.350000 -2.812960 0.405529
38.400000 -2.431319 0.399940
38.450000 -1.908167 0.394388
38.500000 -1.270941 0.388874
38.550000 -0.552717 0.383397
38.600000 0.209484 0.377957
38.650000 0.976597 0.372552
38.700000 1.709492 0.367185
38.750000 2.370964 0.361853
38.800000 2.927598 0.356557
38.850000 3.351448 0.351296
38.900000 3.621426 0.346070
38.950000 3.724332 0.340880
39.000000 3.655491 0.335724
39.050000 3.418942 0.330603
39.100000 3.027200 0.325516
39.150000 2.500574 0.320463
39.200000 1.866109 0.315444
39.250000 1.156179 0.310459
39.300000 0.406827 0.305507
39.350000 -0.344077 0.300588
39.400000 -1.058765 0.295702
39.450000 -1.701481 0.290849
39.500000 -2.240277 0.286028
39.550000 -2.648621 0.281240
39.600000 -2.906703 0.276483
39.650000 -3.002418 0.271759
39.700000 -2.931931 0.267065
39.750000 -2.699839 0.262404
39.800000 -2.318896 0.257773
39.850000 -1.809328 0.253174
39.900000 -1.197773 0.248605
39.950000 -0.515905 0.244067
40.000000 0.201195 0.239559
40.050000 0.916833 0.235081
40.100000 1.594565 0.230633
40.150000 2.200038 0.226215
40.200000 2.702724 0.221827
40.250000 3.077445 0.217467
40.300000 3.305621 0.213137
40.350000 3.376179 0.208836
40.400000 3.286081 0.204564
40.450000 3.040436 0.200320
40.500000 2.652202 0.196104
40.550000 2.141499 0.191917
40.600000 1.534547 0.187757
40.650000 0.862319 0.183626
40.700000 0.158942 0.179522
40.750000 -0.540037 0.175445
40.800000 -1.199465 0.171396
40.850000 -1.786354 0.167373
40.900000 -2.271546 0.163378
40.950000 -2.631167 0.159409
41.000000 -2.847812 0.155466
41.050000 -2.911394 0.151550
41.100000 -2.819622 0.147660
41.150000 -2.578077 0.143796
41.200000 -2.199895 0.139958
41.250000 -1.705063 0.136146
41.300000 -1.119378 0.132358
41.350000 -0.473111 0.128597
41.400000 0.200545 0.124860
41.450000 0.867171 0.121148
41.500000 1.492869 0.117461
41.550000 2.045973 0.113798
41.600000 2.498647 0.110160
41.650000 2.828269 0.106546
41.700000 3.018558 0.102956
41.750000 3.060362 0.099391
41.800000 2.952091 0.095848
41.850000 2.699761 0.092330
41.900000 2.316653 0.088835
41.950000 1.822603 0.085363
42.000000 1.242973 0.081915
42.050000 0.607337 0.078489
42.100000 -0.052038 0.075086
42.150000 -0.701834 0.071706
42.200000 -1.309374 0.068349
42.250000 -1.844277 0.065013
42.300000 -2.279981 0.061700
42.350000 -2.595071 0.058409
42.400000 -2.774337 0.055140
42.450000 -2.809518 0.051893
42.500000 -2.699682 0.048667
42.550000 -2.451243 0.045463
42.600000 -2.077598 0.042280
42.650000 -1.598419 0.039119
42.700000 -1.038624 0.035978
42.750000 -0.427091 0.032858
42.800000 0.204820 0.029759
42.850000 0.824868 0.026681
42.900000 1.401568 0.023623
42.950000 1.905777 0.020586
43.000000 2.312166 0.017568
43.050000 2.600475 0.014571
43.100000 2.756521 0.011594
43.150000 2.772883 0.008636
43.200000 2.649249 0.005699
43.250000 2.392393 0.002780
43.300000 2.015805 -0.000119
43.350000 1.538970 -0.002998
43.400000 0.986356 -0.005859
43.450000 0.386153 -0.008700
43.500000 -0.231176 -0.011522
43.550000 -0.834443 -0.014326
43.600000 -1.393320 -0.017111
43.650000 -1.879869 -0.019878
43.700000 -2.269945 -0.022626
43.750000 -2.544402 -0.025356
43.800000 -2.690035 -0.028068
43.850000 -2.700223 -0.030762
43.900000 -2.575231 -0.033438
43.950000 -2.322164 -0.036096
44.000000 -1.954578 -0.038736
44.050000 -1.491757 -0.041359
44.100000 -0.957716 -0.043965
44.150000 -0.379958 -0.046553
44.200000 0.211932 -0.049124
44.250000 0.787795 -0.051678
44.300000 1.318429 -0.054215
44.350000 1.777060 -0.056735
44.400000 2.140688 -0.059238
44.450000 2.391230 -0.061725
44.500000 2.516418 -0.064195
44.550000 2.510386 -0.066649
44.600000 2.373939 -0.069087
44.650000 2.114482 -0.071508
44.700000 1.745611 -0.073913
44.750000 1.286396 -0.076303
44.800000 0.760392 -0.078676
44.850000 0.194424 -0.081034
44.900000 -0.382791 -0.083376
44.950000 -0.942098 -0.085703
45.000000 -1.455388 -0.088014
45.050000 -1.897015 -0.090310
45.100000 -2.245083 -0.092590
45.150000 -2.482531 -0.094856
45.200000 -2.597983 -0.097106
45.250000 -2.586288 -0.099342
45.300000 -2.448757 -0.101562
45.350000 -2.193063 -0.103768
45.400000 -1.832823 -0.105960
45.450000 -1.386880 -0.108137
45.500000 -0.878327 -0.110299
45.550000 -0.333312 -0.112447
45.600000 0.220292 -0.114581
45.650000 0.754315 -0.116701
45.700000 1.241710 -0.118806
45.750000 1.657921 -0.120898
45.800000 1.982112 -0.122976
45.850000 2.198206 -0.125040
45.900000 2.295674 -0.127090
45.950000 2.270043 -0.129127
46.000000 2.123094 -0.131150
46.050000 1.862739 -0.133160
46.100000 1.502596 -0.135157
46.150000 1.061269 -0.137140
46.200000 0.561383 -0.139110
46.250000 0.028421 -0.141067
46.300000 -0.510580 -0.143011
46.350000 -1.028406 -0.144943
46.400000 -1.499044 -0.146861
46.450000 -1.898991 -0.148767
46.500000 -2.208437 -0.150660
46.550000 -2.412242 -0.152541
46.600000 -2.500690 -0.154409
46.650000 -2.469946 -0.156265
46.700000 -2.322228 -0.158109
46.750000 -2.065663 -0.159940
46.800000 -1.713849 -0.161759
46.850000 -1.285141 -0.163567
46.900000 -0.801696 -0.165362
46.950000 -0.288337 -0.167145
47.000000 0.228716 -0.168917
47.050000 0.723184 -0.170677
47.100000 1.170055 -0.172425
47.150000 1.546847 -0.174162
47.200000 1.834733 -0.175887
47.250000 2.019475 -0.177601
47.300000 2.092127 -0.179303
47.350000 2.049458 -0.180994
47.400000 1.894091 -0.182674
47.450000 1.634342 -0.184343
47.500000 1.283772 -0.186001
47.550000 0.860474 -0.187648
47.600000 0.386138 -0.189284
47.650000 -0.115065 -0.190909
47.700000 -0.617718 -0.192524
47.750000 -1.096453 -0.194127
47.800000 -1.527232 -0.195721
47.850000 -1.888557 -0.197303
47.900000 -2.162550 -0.198875
47.950000 -2.335835 -0.200437
48.000000 -2.400201 -0.201989
48.050000 -2.352985 -0.203530
48.100000 -2.197187 -0.205061
48.150000 -1.941288 -0.206582
48.200000 -1.598794 -0.208093
48.250000 -1.187530 -0.209594
48.300000 -0.728719 -0.211085
48.350000 -0.245886 -0.212566
48.400000 0.236338 -0.214037
48.450000 0.693472 -0.215499
48.500000 1.102422 -0.216951
48.550000 1.442643 -0.218393
48.600000 1.697166 -0.219826
48.650000 1.853443 -0.221250
48.700000 1.903960 -0.222664
48.750000 1.846591 -0.224069
48.800000 1.684682 -0.225464
48.850000 1.426855 -0.226850
48.900000 1.086549 -0.228227
48.950000 0.681311 -0.229595
49.000000 0.231896 -0.230954
49.050000 -0.238808 -0.232304
49.100000 -0.706940 -0.233645
49.150000 -1.148883 -0.234977
49.200000 -1.542460 -0.236301
49.250000 -1.868044 -0.237616
49.300000 -2.109544 -0.238922
49.350000 -2.255204 -0.240219
49.400000 -2.298170 -0.241508
49.450000 -2.236823 -0.242788
49.500000 -2.074828 -0.244060
49.550000 -1.820930 -0.245324
49.600000 -1.488481 -0.246579
49.650000 -1.094749 -0.247826
49.700000 -0.660017 -0.249065
49.750000 -0.206549 -0.250295
49.800000 0.242548 -0.251518
49.850000 0.664501 -0.252732
49.900000 1.038018 -0.253938
49.950000 1.344361 -0.255137
50.000000 1.568284 -0.256327
50.050000 1.698782 -0.257510
50.100000 1.729635 -0.258685
50.150000 1.659695 -0.259852
50.200000 1.492925 -0.261011
50.250000 1.238167 -0.262163
50.300000 0.908678 -0.263307
50.350000 0.521434 -0.264444
50.400000 0.096254 -0.265573
50.450000 -0.345215 -0.266695
50.500000 -0.780607 -0.267809
50.550000 -1.187967 -0.268916
50.600000 -1.546865 -0.270016
50.650000 -1.839419 -0.271108
50.700000 -2.051192 -0.272194
50.750000 -2.171904 -0.273272
50.800000 -2.195931 -0.274343
50.850000 -2.122572 -0.275407
50.900000 -1.956059 -0.276464
50.950000 -1.705316 -0.277514
51.000000 -1.383490 -0.278557
51.050000 -1.007262 -0.279593
51.100000 -0.595989 -0.280623
51.150000 -0.170708 -0.281645
51.200000 0.246935 -0.282661
51.250000 0.635785 -0.283670
51.300000 0.976244 -0.284673
51.350000 1.251257 -0.285669
51.400000 1.447165 -0.286658
51.450000 1.554378 -0.287641
51.500000 1.567840 -0.288618
51.550000 1.487267 -0.289588
51.600000 1.317136 -0.290551
51.650000 1.066437 -0.291509
51.700000 0.748194 -0.292460
51.750000 0.378790 -0.293405
51.800000 -0.022881 -0.294343
51.850000 -0.436379 -0.295275
51.900000 -0.840765 -0.296202
51.950000 -1.215659 -0.297122
52.000000 -1.542272 -0.298036
52.050000 -1.804346 -0.298944
52.100000 -1.988969 -0.299846
52.150000 -2.087209 -0.300742
52.200000 -2.094550 -0.301633
52.250000 -2.011098 -0.302517
52.300000 -1.841555 -0.303396
52.350000 -1.594956 -0.304268
52.400000 -1.284195 -0.305136
52.450000 -0.925353 -0.305997
52.500000 -0.536865 -0.306853
52.550000 -0.138581 -0.307703
52.600000 0.249247 -0.308547
52.650000 0.606997 -0.309386
52.700000 0.916658 -0.310220
52.750000 1.162744 -0.311048
52.800000 1.333057 -0.311870
52.850000 1.419296 -0.312687
52.900000 1.417454 -0.313499
52.950000 1.328003 -0.314306
53.000000 1.155846 -0.315107
53.050000 0.910052 -0.315903
53.100000 0.603371 -0.316693
53.150000 0.251578 -0.317479
53.200000 -0.127344 -0.318259
53.250000 -0.514125 -0.319034
53.300000 -0.889189 -0.319804
53.350000 -1.233645 -0.320569
53.400000 -1.530240 -0.321329
53.450000 -1.764229 -0.322084
53.500000 -1.924102 -0.322835
53.550000 -2.002157 -0.323580
53.600000 -1.994872 -0.324320
53.650000 -1.903057 -0.325055
53.700000 -1.731800 -0.325786
53.750000 -1.490186 -0.326512
53.800000 -1.190816 -0.327233
53.850000 -0.849155 -0.327949
53.900000 -0.482736 -0.328660
53.950000 -0.110260 -0.329367
54.000000 0.249354 -0.330070
54.050000 0.577927 -0.330767
54.100000 0.858940 -0.331460
54.150000 1.078359 -0.332149
54.200000 1.225337 -0.332833
54.250000 1.292743 -0.333512
54.300000 1.277509 -0.334187
54.350000 1.180766 -0.334858
54.400000 1.007764 -0.335524
54.450000 0.767591 -0.336186
54.500000 0.472689 -0.336844
54.550000 0.138214 -0.337497
54.600000 -0.218748 -0.338146
54.650000 -0.580054 -0.338791
54.700000 -0.927427 -0.339431
54.750000 -1.243381 -0.340067
54.800000 -1.512105 -0.340699
54.850000 -1.720254 -0.341327
54.900000 -1.857610 -0.341951
54.950000 -1.917590 -0.342571
55.000000 -1.897557 -0.343186
55.050000 -1.798936 -0.343798
55.100000 -1.627126 -0.344406
55.150000 -1.391202 -0.345009
55.200000 -1.103442 -0.345609
55.250000 -0.778689 -0.346205
55.300000 -0.433589 -0.346797
55.350000 -0.085737 -0.347384
55.400000 0.247217 -0.347969
55.450000 0.548459 -0.348549
55.500000 0.802862 -0.349125
55.550000 0.997743 -0.349698
55.600000 1.123490 -0.350267
55.650000 1.174040 -0.350832
55.700000 1.147162 -0.351394
55.750000 1.044557 -0.351952
55.800000 0.871751 -0.352506
55.850000 0.637797 -0.353056
55.900000 0.354801 -0.353603
55.950000 0.037294 -0.354147
56.000000 -0.298515 -0.354686
56.050000 -0.635569 -0.355223
56.100000 -0.956827 -0.355756
56.150000 -1.246128 -0.356285
56.200000 -1.489009 -0.356811
56.250000 -1.673422 -0.357333
56.300000 -1.790336 -0.357852
56.350000 -1.834182 -0.358367
56.400000 -1.803113 -0.358880
56.450000 -1.699085 -0.359388
56.500000 -1.527737 -0.359894
56.550000 -1.298088 -0.360396
56.600000 -1.022065 -0.360895
56.650000 -0.713887 -0.361391
56.700000 -0.389332 -0.361883
56.750000 -0.064931 -0.362372
56.800000 0.242871 -0.362858
56.850000 0.518547 -0.363341
56.900000 0.748271 -0.363821
56.950000 0.920609 -0.364297
57.000000 1.027087 -0.364770
57.050000 1.062604 -0.365241
57.100000 1.025677 -0.365708
57.150000 0.918494 -0.366172
57.200000 0.746794 -0.366633
57.250000 0.519551 -0.367091
57.300000 0.248509 -0.367546
57.350000 -0.052427 -0.367998
57.400000 -0.367904 -0.368448
57.450000 -0.681906 -0.368894
57.500000 -0.978568 -0.369337
57.550000 -1.242979 -0.369778
57.600000 -1.461930 -0.370215
57.650000 -1.624576 -0.370650
57.700000 -1.722974 -0.371082
57.750000 -1.752471 -0.371511
57.800000 -1.711924 -0.371937
57.850000 -1.603740 -0.372360
57.900000 -1.433738 -0.372781
57.950000 -1.210839 -0.373199
58.000000 -0.946600 -0.373614
58.050000 -0.654613 -0.374026
58.100000 -0.349812 -0.374436
58.150000 -0.047707 -0.374843
58.200000 0.236401 -0.375247
58.250000 0.488196 -0.375649
58.300000 0.695067 -0.376048
58.350000 0.846735 -0.376445
58.400000 0.935764 -0.376839
58.450000 0.957928 -0.377230
58.500000 0.912402 -0.377619
58.550000 0.801794 -0.378005
58.600000 0.631991 -0.378389
58.650000 0.411853 -0.378770
58.700000 0.152742 -0.379149
58.750000 -0.132059 -0.379525
58.800000 -0.428030 -0.379899
58.850000 -0.720156 -0.380270
58.900000 -0.993686 -0.380639
58.950000 -1.234882 -0.381006
59.000000 -1.431706 -0.381370
59.050000 -1.574426 -0.381732
59.100000 -1.656092 -0.382091
59.150000 -1.672880 -0.382448
59.200000 -1.624267 -0.382803
59.250000 -1.513042 -0.383155
59.300000 -1.345152 -0.383506
59.350000 -1.129382 -0.383853
59.400000 -0.876900 -0.384199
59.450000 -0.600679 -0.384542
59.500000 -0.314832 -0.384883
59.550000 -0.033890 -0.385222
59.600000 0.227931 -0.385559
59.650000 0.457452 -0.385893
59.700000 0.643192 -0.386225
59.750000 0.775940 -0.386555
59.800000 0.849212 -0.386883
59.850000 0.859566 -0.387209
59.900000 0.806760 -0.387533
59.950000 0.693751 -0.387854
60.000000 0.526531 -0.388174
60.050000 0.313805 -0.388491
60.100000 0.066542 -0.388806
60.150000 -0.202592 -0.389120
60.200000 -0.479888 -0.389431
60.250000 -0.751284 -0.389740
60.300000 -1.003086 -0.390047
60.350000 -1.222659 -0.390352
60.400000 -1.399055 -0.390655
60.450000 -1.523566 -0.390956
60.500000 -1.590152 -0.391256
60.550000 -1.595733 -0.391553
60.600000 -1.540333 -0.391848
60.650000 -1.427060 -0.392142
60.700000 -1.261938 -0.392433
60.750000 -1.053589 -0.392723
60.800000 -0.812777 -0.393010
60.850000 -0.551863 -0.393296
60.900000 -0.284164 -0.393580
60.950000 -0.023276 -0.393862
61.000000 0.217611 -0.394142
61.050000 0.426386 -0.394421
61.100000 0.592619 -0.394697
61.150000 0.708084 -0.394972
61.200000 0.767164 -0.395245
61.250000 0.767123 -0.395517
61.300000 0.708230 -0.395786
61.350000 0.593734 -0.396054
61.400000 0.429681 -0.396320
61.450000 0.224597 -0.396584
61.500000 -0.010954 -0.396846
61.550000 -0.264918 -0.397107
61.600000 -0.524363 -0.397366
61.650000 -0.776145 -0.397624
61.700000 -1.007567 -0.397879
61.750000 -1.207026 -0.398134
61.800000 -1.364589 -0.398386
61.850000 -1.472494 -0.398637
61.900000 -1.525526 -0.398886
61.950000 -1.521276 -0.399133
62.000000 -1.460243 -0.399379
62.050000 -1.345801 -0.399624
62.100000 -1.184007 -0.399866
62.150000 -0.983291 -0.400107
62.200000 -0.754008 -0.400347
62.250000 -0.507915 -0.400585
62.300000 -0.257559 -0.400821
62.350000 -0.015646 -0.401056
62.400000 0.205606 -0.401290
62.450000 0.395086 -0.401522
62.500000 0.543340 -0.401752
62.550000 0.643049 -0.401981
62.600000 0.689385 -0.402208
62.650000 0.680246 -0.402434
62.700000 0.616345 -0.402658
62.750000 0.501168 -0.402881
62.800000 0.340777 -0.403103
62.850000 0.143495 -0.403323
62.900000 -0.080527 -0.403541
62.950000 -0.319834 -0.403759
63.000000 -0.562249 -0.403974
63.050000 -0.795499 -0.404189
63.100000 -1.007830 -0.404402
63.150000 -1.188605 -0.404613
63.200000 -1.328835 -0.404824
63.250000 -1.421623 -0.405032
63.300000 -1.462511 -0.405240
63.350000 -1.449685 -0.405446
63.400000 -1.384061 -0.405651
63.450000 -1.269223 -0.405854
63.500000 -1.111228 -0.406056
63.550000 -0.918289 -0.406257
63.600000 -0.700349 -0.406457
63.650000 -0.468569 -0.406655
63.700000 -0.234758 -0.406852
63.750000 -0.010771 -0.407048
63.800000 0.192092 -0.407242
63.850000 0.363651 -0.407435
63.900000 0.495362 -0.407627
63.950000 0.580738 -0.407818
64.000000 0.615668 -0.408007
64.050000 0.598614 -0.408195
64.100000 0.530678 -0.408382
64.150000 0.415531 -0.408568
64.200000 0.259216 -0.408752
64.250000 0.069834 -0.408936
64.300000 -0.142881 -0.409118
64.350000 -0.368061 -0.409299
64.400000 -0.594256 -0.409478
64.450000 -0.810021 -0.409657
64.500000 -1.004493 -0.409834
64.550000 -1.167937 -0.410011
64.600000 -1.292238 -0.410186
64.650000 -1.371298 -0.410360
64.700000 -1.401339 -0.410532
64.750000 -1.381082 -0.410704
64.800000 -1.311802 -0.410875
64.850000 -1.197247 -0.411044
64.900000 -1.043440 -0.411213
64.950000 -0.858362 -0.411380
65.000000 -0.651538 -0.411546
65.050000 -0.433550 -0.411711
65.100000 -0.215494 -0.411875
65.150000 -0.008415 -0.412038
65.200000 0.177246 -0.412200
65.250000 0.332187 -0.412361
65.300000 0.448703 -0.412521
65.350000 0.521069 -0.412680
65.400000 0.545826 -0.412838
65.450000 0.521938 -0.412994
65.500000 0.450838 -0.413150
65.550000 0.336343 -0.413305
65.600000 0.184446 -0.413458
65.650000 0.003006 -0.413611
65.700000 -0.198658 -0.413763
65.750000 -0.410251 -0.413914
65.800000 -0.621022 -0.414063
65.850000 -0.820314 -0.414212
65.900000 -0.998100 -0.414360
65.950000 -1.145491 -0.414507
66.000000 -1.255179 -0.414653
66.050000 -1.321797 -0.414798
66.100000 -1.342187 -0.414942
66.150000 -1.315542 -0.415085
66.200000 -1.243444 -0.415227
66.250000 -1.129764 -0.415368
66.300000 -0.980463 -0.415508
66.350000 -0.803275 -0.415648
66.400000 -0.607308 -0.415786
66.450000 -0.402579 -0.415924
66.500000 -0.199500 -0.416060
66.550000 -0.008349 -0.416196
66.600000 0.161248 -0.416331
66.650000 0.300801 -0.416465
66.700000 0.403382 -0.416598
66.750000 0.463969 -0.416731
66.800000 0.479687 -0.416862
66.850000 0.449947 -0.416993
66.900000 0.376466 -0.417123
66.950000 0.263163 -0.417252
67.000000 0.115958 -0.417380
67.050000 -0.057544 -0.417507
67.100000 -0.248441 -0.417633
67.150000 -0.446993 -0.417759
67.200000 -0.643121 -0.417884
67.250000 -0.826913 -0.418008
67.300000 -0.989132 -0.418131
67.350000 -1.121676 -0.418253
67.400000 -1.217981 -0.418375
67.450000 -1.273352 -0.418496
67.500000 -1.285187 -0.418616
67.550000 -1.253101 -0.418735
67.600000 -1.178931 -0.418853
67.650000 -1.066640 -0.418971
67.700000 -0.922099 -0.419088
67.750000 -0.752783 -0.419204
67.800000 -0.567387 -0.419319
67.850000 -0.375378 -0.419434
67.900000 -0.186513 -0.419548
67.950000 -0.010342 -0.419661
68.000000 0.144270 -0.419774
68.050000 0.269596 -0.419885
68.100000 0.359424 -0.419996
68.150000 0.409371 -0.420107
68.200000 0.417093 -0.420216
68.250000 0.382394 -0.420325
68.300000 0.307228 -0.420433
68.350000 0.195585 -0.420541
68.400000 0.053287 -0.420647
68.450000 -0.112325 -0.420753
68.500000 -0.292761 -0.420859
68.550000 -0.478822 -0.420963
68.600000 -0.661068 -0.421067
68.650000 -0.830298 -0.421171
68.700000 -0.978013 -0.421273
68.750000 -1.096843 -0.421375
68.800000 -1.180916 -0.421477
68.850000 -1.226146 -0.421577
68.900000 -1.230433 -0.421677
68.950000 -1.193762 -0.421777
69.000000 -1.118187 -0.421876
69.050000 -1.007725 -0.421974
69.100000 -0.868138 -0.422071
69.150000 -0.706636 -0.422168
69.200000 -0.531502 -0.422264
69.250000 -0.351673 -0.422360
69.300000 -0.176277 -0.422455
69.350000 -0.014177 -0.422549
69.400000 0.126480 -0.422643
69.450000 0.238672 -0.422736
69.500000 0.316850 -0.422828
69.550000 0.357213 -0.422920
69.600000 0.357896 -0.423012
69.650000 0.319045 -0.423102
69.700000 0.242813 -0.423192
69.750000 0.133231 -0.423282
69.800000 -0.003999 -0.423371
69.850000 -0.161805 -0.423459
69.900000 -0.332104 -0.423547
69.950000 -0.506222 -0.423634
70.000000 -0.675330 -0.423721
70.050000 -0.830897 -0.423807
70.100000 -0.965116 -0.423893
70.150000 -1.071301 -0.423978
70.200000 -1.144213 -0.424062
70.250000 -1.180324 -0.424146
70.300000 -1.177986 -0.424230
70.350000 -1.137504 -0.424312
70.400000 -1.061113 -0.424395
70.450000 -0.952856 -0.424477
70.500000 -0.818367 -0.424558
70.550000 -0.664584 -0.424639
70.600000 -0.499387 -0.424719
70.650000 -0.331196 -0.424798
70.700000 -0.168544 -0.424878
70.750000 -0.019641 -0.424956
70.800000 0.108037 -0.425034
70.850000 0.208123 -0.425112
70.900000 0.275680 -0.425189
70.950000 0.307437 -0.425266
71.000000 0.301954 -0.425342
71.050000 0.259683 -0.425417
71.100000 0.182933 -0.425493
71.150000 0.075751 -0.425567
71.200000 -0.056298 -0.425641
71.250000 -0.206414 -0.425715
71.300000 -0.366916 -0.425788
71.350000 -0.529635 -0.425861
71.400000 -0.686325 -0.425933
71.450000 -0.829090 -0.426005
71.500000 -0.950770 -0.426077
71.550000 -1.045312 -0.426147
71.600000 -1.108062 -0.426218
71.650000 -1.135999 -0.426288
71.700000 -1.127877 -0.426357
71.750000 -1.084284 -0.426426
71.800000 -1.007598 -0.426495
71.850000 -0.901861 -0.426563
71.900000 -0.772568 -0.426631
71.950000 -0.626379 -0.426698
72.000000 -0.470779 -0.426765
72.050000 -0.313690 -0.426832
72.100000 -0.163077 -0.426898
72.150000 -0.026534 -0.426963
72.200000 0.089089 -0.427028
72.250000 0.178037 -0.427093
72.300000 0.235930 -0.427157
72.350000 0.259983 -0.427221
72.400000 0.249135 -0.427285
72.450000 0.204099 -0.427348
72.500000 0.127315 -0.427410
72.550000 0.022815 -0.427473
72.600000 -0.103979 -0.427535
72.650000 -0.246549 -0.427596
72.700000 -0.397604 -0.427657
72.750000 -0.549462 -0.427718
72.800000 -0.694434 -0.427778
72.850000 -0.825218 -0.427838
72.900000 -0.935265 -0.427897
72.950000 -1.019105 -0.427957
73.000000 -1.072622 -0.428015
73.050000 -1.093255 -0.428074
73.100000 -1.080119 -0.428132
73.150000 -1.034042 -0.428189
73.200000 -0.957516 -0.428246
73.250000 -0.854563 -0.428303
73.300000 -0.730523 -0.428360
73.350000 -0.591777 -0.428416
73.400000 -0.445423 -0.428472
73.450000 -0.298907 -0.428527
73.500000 -0.159650 -0.428582
73.550000 -0.034668 -0.428637
73.600000 0.069776 -0.428691
73.650000 0.148492 -0.428745
73.700000 0.197613 -0.428799
73.750000 0.214792 -0.428852
73.800000 0.199309 -0.428905
73.850000 0.152100 -0.428958
73.900000 0.075702 -0.429010
73.950000 -0.025880 -0.429062
74.000000 -0.147387 -0.429113
74.050000 -0.282576 -0.429165
74.100000 -0.424543 -0.429215
74.150000 -0.566070 -0.429266
74.200000 -0.699998 -0.429316
74.250000 -0.819588 -0.429366
74.300000 -0.918855 -0.429416
74.350000 -0.992875 -0.429465
74.400000 -1.038023 -0.429514
74.450000 -1.052153 -0.429563
74.500000 -1.034701 -0.429611
74.550000 -0.986703 -0.429659
74.600000 -0.910736 -0.429707
74.650000 -0.810781 -0.429754
74.700000 -0.692015 -0.429801
74.750000 -0.560540 -0.429848
74.800000 -0.423076 -0.429895
74.850000 -0.286610 -0.429941
74.900000 -0.158050 -0.429987
74.950000 -0.043867 -0.430033
75.000000 0.050226 -0.430078
75.050000 0.119558 -0.430123
75.100000 0.160736 -0.430168
75.150000 0.171807 -0.430212
75.200000 0.152351 -0.430256
75.250000 0.103497 -0.430300
75.300000 0.027855 -0.430344
75.350000 -0.070621 -0.430387
75.400000 -0.186839 -0.430430
75.450000 -0.314835 -0.430473
75.500000 -0.448074 -0.430515
75.550000 -0.579791 -0.430557
75.600000 -0.703327 -0.430599
75.650000 -0.812469 -0.430641
75.700000 -0.901764 -0.430682
75.750000 -0.966788 -0.430724
75.800000 -1.004367 -0.430764
75.850000 -1.012732 -0.430805
75.900000 -0.991600 -0.430845
75.950000 -0.942184 -0.430885
76.000000 -0.867121 -0.430925
76.050000 -0.770336 -0.430965
76.100000 -0.656832 -0.431004
76.150000 -0.532437 -0.431043
76.200000 -0.403501 -0.431082
76.250000 -0.276576 -0.431120
76.300000 -0.158077 -0.431159
76.350000 -0.053965 -0.431197
76.400000 0.030556 -0.431235
76.450000 0.091299 -0.431272
76.500000 0.125301 -0.431309
76.550000 0.130966 -0.431346
76.600000 0.108141 -0.431383
76.650000 0.058113 -0.431420
76.700000 -0.016456 -0.431456
76.750000 -0.111677 -0.431492
76.800000 -0.222634 -0.431528
76.850000 -0.343637 -0.431564
76.900000 -0.468515 -0.431599
76.950000 -0.590929 -0.431635
77.000000 -0.704698 -0.431670
77.050000 -0.804105 -0.431704
77.100000 -0.884188 -0.431739
77.150000 -0.940986 -0.431773
77.200000 -0.971739 -0.431807
77.250000 -0.975014 -0.431841
77.300000 -0.950778 -0.431875
77.350000 -0.900391 -0.431908
77.400000 -0.826530 -0.431941
77.450000 -0.733046 -0.431974
77.500000 -0.624767 -0.432007
77.550000 -0.507246 -0.432040
77.600000 -0.386477 -0.432072
77.650000 -0.268591 -0.432104
77.700000 -0.159543 -0.432136
77.750000 -0.064812 -0.432168
77.800000 0.010873 -0.432200
77.850000 0.063769 -0.432231
77.900000 0.091307 -0.432262
77.950000 0.092210 -0.432293
78.000000 0.066560 -0.432324
78.050000 0.015778 -0.432354
78.100000 -0.057446 -0.432385
78.150000 -0.149300 -0.432415
78.200000 -0.255049 -0.432445
78.250000 -0.369273 -0.432474
78.300000 -0.486154 -0.432504
78.350000 -0.599762 -0.432533
78.400000 -0.704365 -0.432563
78.450000 -0.794711 -0.432592
78.500000 -0.866297 -0.432620
78.550000 -0.915590 -0.432649
78.600000 -0.940202 -0.432677
78.650000 -0.939006 -0.432706
78.700000 -0.912187 -0.432734
78.750000 -0.861226 -0.432762
78.800000 -0.788820 -0.432789
78.850000 -0.698735 -0.432817
78.900000 -0.595619 -0.432844
78.950000 -0.484754 -0.432871
79.000000 -0.371790 -0.432898
79.050000 -0.262457 -0.432925
79.100000 -0.162273 -0.432952
79.150000 -0.076268 -0.432978
79.200000 -0.008728 -0.433005
79.250000 0.037013 -0.433031
79.300000 0.058744 -0.433057
79.350000 0.055477 -0.433083
79.400000 0.027494 -0.433108
79.450000 -0.023670 -0.433134
79.500000 -0.095318 -0.433159
79.550000 -0.183726 -0.433184
79.600000 -0.284341 -0.433209
79.650000 -0.392012 -0.433234
79.700000 -0.501258 -0.433259
79.750000 -0.606541 -0.433283
79.800000 -0.702554 -0.433308
79.850000 -0.784480 -0.433332
79.900000 -0.848241 -0.433356
79.950000 -0.890698 -0.433380
80.000000 -0.909803 -0.433403
80.050000 -0.904702 -0.433427
80.100000 -0.875770 -0.433450
80.150000 -0.824586 -0.433474
80.200000 -0.753847 -0.433497
80.250000 -0.667229 -0.433520
80.300000 -0.569193 -0.433543
80.350000 -0.464757 -0.433565
80.400000 -0.359239 -0.433588
80.450000 -0.257987 -0.433610
80.500000 -0.166106 -0.433633
80.550000 -0.088205 -0.433655
80.600000 -0.028161 -0.433677
80.650000 0.011071 -0.433698
80.700000 0.027601 -0.433720
80.750000 0.020702 -0.433742
80.800000 -0.009169 -0.433763
80.850000 -0.060389 -0.433784
80.900000 -0.130268 -0.433805
80.950000 -0.215178 -0.433826
81.000000 -0.310752 -0.433847
81.050000 -0.412102 -0.433868
81.100000 -0.514072 -0.433889
81.150000 -0.611497 -0.433909
81.200000 -0.699470 -0.433929
81.250000 -0.773582 -0.433950
81.300000 -0.830149 -0.433970
81.350000 -0.866393 -0.433990
81.400000 -0.880576 -0.434009
81.450000 -0.872087 -0.434029
81.500000 -0.841464 -0.434049
81.550000 -0.790364 -0.434068
81.600000 -0.721471 -0.434087
81.650000 -0.638359 -0.434106
81.700000 -0.545303 -0.434126
81.750000 -0.447063 -0.434144
81.800000 -0.348636 -0.434163
81.850000 -0.255006 -0.434182
81.900000 -0.170893 -0.434201
81.950000 -0.100507 -0.434219
82.000000 -0.047350 -0.434237
82.050000 -0.014029 -0.434256
82.100000 -0.002138 -0.434274
82.150000 -0.012178 -0.434292
82.200000 -0.043538 -0.434309
82.250000 -0.094529 -0.434327
82.300000 -0.162477 -0.434345
82.350000 -0.243864 -0.434362
82.400000 -0.334507 -0.434380
82.450000 -0.429773 -0.434397
82.500000 -0.524820 -0.434414
82.550000 -0.614839 -0.434431
82.600000 -0.695297 -0.434448
82.650000 -0.762168 -0.434465
82.700000 -0.812133 -0.434482
82.750000 -0.842743 -0.434499
82.800000 -0.852543 -0.434515
82.850000 -0.841135 -0.434532
82.900000 -0.809200 -0.434548
82.950000 -0.758452 -0.434564
83.000000 -0.691551 -0.434580
83.050000 -0.611960 -0.434596
83.100000 -0.523770 -0.434612
83.150000 -0.431487 -0.434628
83.200000 -0.339802 -0.434644
83.250000 -0.253353 -0.434659
83.300000 -0.176494 -0.434675
83.350000 -0.113070 -0.434690
83.400000 -0.066227 -0.434705
83.450000 -0.038260 -0.434721
83.500000 -0.030494 -0.434736
83.550000 -0.043228 -0.434751
83.600000 -0.075720 -0.434766
83.650000 -0.126231 -0.434780
83.700000 -0.192121 -0.434795
83.750000 -0.269981 -0.434810
83.800000 -0.355815 -0.434824
83.850000 -0.445239 -0.434839
83.900000 -0.533711 -0.434853
83.950000 -0.616757 -0.434867
84.000000 -0.690202 -0.434882
84.050000 -0.750373 -0.434896
84.100000 -0.794288 -0.434910
84.150000 -0.819802 -0.434923
84.200000 -0.825713 -0.434937
84.250000 -0.811815 -0.434951
84.300000 -0.778906 -0.434965
84.350000 -0.728744 -0.434978
84.400000 -0.663950 -0.434992
84.450000 -0.587875 -0.435005
84.500000 -0.504424 -0.435018
84.550000 -0.417856 -0.435031
84.600000 -0.332570 -0.435045
84.650000 -0.252877 -0.435058
84.700000 -0.182785 -0.435070
84.750000 -0.125798 -0.435083
84.800000 -0.084737 -0.435096
84.850000 -0.061607 -0.435109
84.900000 -0.057493 -0.435121
84.950000 -0.072514 -0.435134
85.000000 -0.105819 -0.435146
85.050000 -0.155636 -0.435159
85.100000 -0.219365 -0.435171
85.150000 -0.293715 -0.435183
85.200000 -0.374872 -0.435195
85.250000 -0.458696 -0.435207
85.300000 -0.540932 -0.435219
85.350000 -0.617426 -0.435231
85.400000 -0.684333 -0.435243
85.450000 -0.738313 -0.435255
85.500000 -0.776695 -0.435267
85.550000 -0.797612 -0.435278
85.600000 -0.800088 -0.435290
85.650000 -0.784087 -0.435301
85.700000 -0.750506 -0.435313
85.750000 -0.701130 -0.435324
85.800000 -0.638534 -0.435335
85.850000 -0.565951 -0.435346
85.900000 -0.487101 -0.435357
85.950000 -0.406008 -0.435368
86.000000 -0.326786 -0.435379
86.050000 -0.253439 -0.435390
86.100000 -0.189651 -0.435401
86.150000 -0.138606 -0.435412
86.200000 -0.102828 -0.435422
86.250000 -0.084056 -0.435433
86.300000 -0.083160 -0.435443
86.350000 -0.100101 -0.435454
86.400000 -0.133936 -0.435464
86.450000 -0.182874 -0.435475
86.500000 -0.244364 -0.435485
86.550000 -0.315237 -0.435495
86.600000 -0.391860 -0.435505
86.650000 -0.470327 -0.435515
86.700000 -0.546659 -0.435525
86.750000 -0.617002 -0.435535
86.800000 -0.677824 -0.435545
86.850000 -0.726093 -0.435555
86.900000 -0.759426 -0.435565
86.950000 -0.776206 -0.435574
87.000000 -0.775663 -0.435584
87.050000 -0.757909 -0.435594
87.100000 -0.723923 -0.435603
87.150000 -0.675505 -0.435612
87.200000 -0.615174 -0.435622
87.250000 -0.546041 -0.435631
87.300000 -0.471649 -0.435640
87.350000 -0.395787 -0.435650
87.400000 -0.322305 -0.435659
87.450000 -0.254910 -0.435668
87.500000 -0.196986 -0.435677
87.550000 -0.151419 -0.435686
87.600000 -0.120459 -0.435695
87.650000 -0.105604 -0.435704
87.700000 -0.107528 -0.435712
87.750000 -0.126056 -0.435721
87.800000 -0.160170 -0.435730
87.850000 -0.208071 -0.435738
87.900000 -0.267269 -0.435747
87.950000 -0.334712 -0.435755
88.000000 -0.406950 -0.435764
88.050000 -0.480302 -0.435772
88.100000 -0.551051 -0.435781
88.150000 -0.615629 -0.435789
88.200000 -0.670795 -0.435797
88.250000 -0.713804 -0.435805
88.300000 -0.742536 -0.435814
88.350000 -0.755605 -0.435822
88.400000 -0.752425 -0.435830
88.450000 -0.733233 -0.435838
88.500000 -0.699080 -0.435846
88.550000 -0.651764 -0.435853
88.600000 -0.593744 -0.435861
88.650000 -0.528008 -0.435869
88.700000 -0.457921 -0.435877
88.750000 -0.387051 -0.435885
88.800000 -0.318991 -0.435892
88.850000 -0.257172 -0.435900
88.900000 -0.204695 -0.435907
88.950000 -0.164171 -0.435915
89.000000 -0.137595 -0.435922
89.050000 -0.126247 -0.435930
89.100000 -0.130629 -0.435937
89.150000 -0.150445 -0.435944
89.200000 -0.184618 -0.435951
89.250000 -0.231350 -0.435959
89.300000 -0.288218 -0.435966
89.350000 -0.352294 -0.435973
89.400000 -0.420300 -0.435980
89.450000 -0.488777 -0.435987
89.500000 -0.554255 -0.435994
89.550000 -0.613436 -0.436001
89.600000 -0.663353 -0.436008
89.650000 -0.701525 -0.436015
89.700000 -0.726075 -0.436021
89.750000 -0.735825 -0.436028
89.800000 -0.730354 -0.436035
89.850000 -0.710011 -0.436042
89.900000 -0.675896 -0.436048
89.950000 -0.629803 -0.436055
90.000000 -0.574121 -0.436061
90.050000 -0.511717 -0.436068
90.100000 -0.445779 -0.436074
90.150000 -0.379665 -0.436081
90.200000 -0.316720 -0.436087
90.250000 -0.260118 -0.436093
90.300000 -0.212693 -0.436100
90.350000 -0.176802 -0.436106
90.400000 -0.154207 -0.436112
90.450000 -0.145991 -0.436118
90.500000 -0.152499 -0.436124
90.550000 -0.173333 -0.436131
90.600000 -0.207371 -0.436137
90.650000 -0.252826 -0.436143
90.700000 -0.307345 -0.436149
90.750000 -0.368124 -0.436155
90.800000 -0.432058 -0.436160
90.850000 -0.495895 -0.436166
90.900000 -0.556405 -0.436172
90.950000 -0.610540 -0.436178
91.000000 -0.655592 -0.436184
91.050000 -0.689323 -0.436189
91.100000 -0.710080 -0.436195
91.150000 -0.716875 -0.436201
91.200000 -0.709429 -0.436206
91.250000 -0.688189 -0.436212
91.300000 -0.654295 -0.436217
91.350000 -0.609523 -0.436223
91.400000 -0.556192 -0.436228
91.450000 -0.497042 -0.436234
91.500000 -0.435095 -0.436239
91.550000 -0.373502 -0.436245
91.600000 -0.315377 -0.436250
91.650000 -0.263648 -0.436255
91.700000 -0.220902 -0.436260
91.750000 -0.189261 -0.436266
91.800000 -0.170273 -0.436271
91.850000 -0.164841 -0.436276
91.900000 -0.173174 -0.436281
91.950000 -0.194786 -0.436286
92.000000 -0.228520 -0.436291
92.050000 -0.272610 -0.436296
92.100000 -0.324776 -0.436301
92.150000 -0.382340 -0.436306
92.200000 -0.442361 -0.436311
92.250000 -0.501790 -0.436316
92.300000 -0.557622 -0.436321
92.350000 -0.607048 -0.436326
92.400000 -0.647597 -0.436331
92.450000 -0.677259 -0.436335
92.500000 -0.694584 -0.436340
92.550000 -0.698755 -0.436345
92.600000 -0.689623 -0.436350
92.650000 -0.667714 -0.436354
92.700000 -0.634197 -0.436359
92.750000 -0.590826 -0.436363
92.800000 -0.539842 -0.436368
92.850000 -0.483864 -0.436372
92.900000 -0.425747 -0.436377
92.950000 -0.368445 -0.436381
93.000000 -0.314855 -0.436386
93.050000 -0.267672 -0.436390
93.100000 -0.229254 -0.436395
93.150000 -0.201503 -0.436399
93.200000 -0.185776 -0.436403
93.250000 -0.182809 -0.436408
93.300000 -0.192694 -0.436412
93.350000 -0.214868 -0.436416
93.400000 -0.248152 -0.436420
93.450000 -0.290807 -0.436425
93.500000 -0.340631 -0.436429
93.550000 -0.395066 -0.436433
93.600000 -0.451336 -0.436437
93.650000 -0.506585 -0.436441
93.700000 -0.558019 -0.436445
93.750000 -0.603055 -0.436449
93.800000 -0.639443 -0.436453
93.850000 -0.665383 -0.436457
93.900000 -0.679611 -0.436461
93.950000 -0.681464 -0.436465
94.000000 -0.670905 -0.436469
94.050000 -0.648531 -0.436473
94.100000 -0.615528 -0.436477
94.150000 -0.573619 -0.436481
94.200000 -0.524967 -0.436485
94.250000 -0.472068 -0.436488
94.300000 -0.417620 -0.436492
94.350000 -0.364387 -0.436496
94.400000 -0.315056 -0.436500
94.450000 -0.272108 -0.436503
94.500000 -0.237686 -0.436507
94.550000 -0.213492 -0.436511
94.600000 -0.200702 -0.436514
94.650000 -0.199909 -0.436518
94.700000 -0.211098 -0.436521
94.750000 -0.233644 -0.436525
94.800000 -0.266352 -0.436528
94.850000 -0.307519 -0.436532
94.900000 -0.355020 -0.436535
94.950000 -0.406422 -0.436539
95.000000 -0.459103 -0.436542
95.050000 -0.510392 -0.436546
95.100000 -0.557699 -0.436549
95.150000 -0.598648 -0.436552
95.200000 -0.631197 -0.436556
95.250000 -0.653738 -0.436559
95.300000 -0.665179 -0.436562
95.350000 -0.664992 -0.436566
95.400000 -0.653244 -0.436569
95.450000 -0.630584 -0.436572
95.500000 -0.598211 -0.436576
95.550000 -0.557810 -0.436579
95.600000 -0.511465 -0.436582
95.650000 -0.461549 -0.436585
95.700000 -0.410608 -0.436588
95.750000 -0.361224 -0.436591
95.800000 -0.315890 -0.436594
95.850000 -0.276882 -0.436598
95.900000 -0.246145 -0.436601
95.950000 -0.225194 -0.436604
96.000000 -0.215044 -0.436607
96.050000 -0.216158 -0.436610
96.100000 -0.228426 -0.436613
96.150000 -0.251174 -0.436616
96.200000 -0.283200 -0.436619
96.250000 -0.322840 -0.436622
96.300000 -0.368051 -0.436624
96.350000 -0.416518 -0.436627
96.400000 -0.465772 -0.436630
96.450000 -0.513316 -0.436633
96.500000 -0.556753 -0.436636
96.550000 -0.593903 -0.436639
96.600000 -0.622915 -0.436642
96.650000 -0.642360 -0.436644
96.700000 -0.651299 -0.436647
96.750000 -0.649330 -0.436650
96.800000 -0.636605 -0.436653
96.850000 -0.613819 -0.436655
96.900000 -0.582173 -0.436658
96.950000 -0.543313 -0.436661
97.000000 -0.499238 -0.436663
97.050000 -0.452206 -0.436666
97.100000 -0.404611 -0.436669
97.150000 -0.358865 -0.436671
97.200000 -0.317275 -0.436674
97.250000 -0.281927 -0.436676
97.300000 -0.254581 -0.436679
97.350000 -0.236583 -0.436681
97.400000 -0.228799 -0.436684
97.450000 -0.231575 -0.436686
97.500000 -0.244720 -0.436689
97.550000 -0.267521 -0.436691
97.600000 -0.298776 -0.436694
97.650000 -0.336863 -0.436696
97.700000 -0.379823 -0.436699
97.750000 -0.425458 -0.436701
97.800000 -0.471444 -0.436704
97.850000 -0.515453 -0.436706
97.900000 -0.555267 -0.436708
97.950000 -0.588889 -0.436711
98.000000 -0.614649 -0.436713
98.050000 -0.631278 -0.436715
98.100000 -0.637980 -0.436718
98.150000 -0.634463 -0.436720
98.200000 -0.620952 -0.436722
98.250000 -0.598180 -0.436725
98.300000 -0.567344 -0.436727
98.350000 -0.530043 -0.436729
98.400000 -0.488195 -0.436731
98.450000 -0.443942 -0.436734
98.500000 -0.399535 -0.436736
98.550000 -0.357222 -0.436738
98.600000 -0.319135 -0.436740
98.650000 -0.287183 -0.436742
98.700000 -0.262953 -0.436744
98.750000 -0.247636 -0.436746
98.800000 -0.241965 -0.436749
98.850000 -0.246180 -0.436751
98.900000 -0.260022 -0.436753
98.950000 -0.282744 -0.436755
99.000000 -0.313153 -0.436757
99.050000 -0.349675 -0.436759
99.100000 -0.390431 -0.436761
99.150000 -0.433338 -0.436763
99.200000 -0.476215 -0.436765
99.250000 -0.516890 -0.436767
99.300000 -0.553316 -0.436769
99.350000 -0.583669 -0.436771
99.400000 -0.606442 -0.436773
99.450000 -0.620518 -0.436775
99.500000 -0.625226 -0.436777
99.550000 -0.620372 -0.436779
99.600000 -0.606248 -0.436781
99.650000 -0.583613 -0.436783
99.700000 -0.553653 -0.436784
99.750000 -0.517920 -0.436786
99.800000 -0.478250 -0.436788
99.850000 -0.436670 -0.436790
99.900000 -0.395294 -0.436792
99.950000 -0.356216 -0.436794
100.000000 -0.321402 -0.436795
100.050000 -0.292595 -0.436797
100.100000 -0.271225 -0.436799
100.150000 -0.258337 -0.436801
100.200000 -0.254545 -0.436803
100.250000 -0.259996 -0.436804
100.300000 -0.274372 -0.436806
100.350000 -0.296901 -0.436808
100.400000 -0.326405 -0.436810
100.450000 -0.361357 -0.436811
100.500000 -0.399963 -0.436813
100.550000 -0.440250 -0.436815
100.600000 -0.480171 -0.436816
100.650000 -0.517708 -0.436818
100.700000 -0.550971 -0.436820
100.750000 -0.578298 -0.436821
100.800000 -0.598334 -0.436823
100.850000 -0.610098 -0.436825
100.900000 -0.613036 -0.436826
100.950000 -0.607039 -0.436828
101.000000 -0.592456 -0.436829
101.050000 -0.570064 -0.436831
101.100000 -0.541034 -0.436833
101.150000 -0.506868 -0.436834
101.200000 -0.469320 -0.436836
101.250000 -0.430306 -0.436837
101.300000 -0.391808 -0.436839
101.350000 -0.355773 -0.436840
101.400000 -0.324013 -0.436842
101.450000 -0.298115 -0.436843
101.500000 -0.279363 -0.436845
101.550000 -0.268672 -0.436846
101.600000 -0.266544 -0.436848
101.650000 -0.273048 -0.436849
101.700000 -0.287812 -0.436851
101.750000 -0.310050 -0.436852
101.800000 -0.338600 -0.436854
101.850000 -0.371989 -0.436855
101.900000 -0.408502 -0.436856
101.950000 -0.446276 -0.436858
102.000000 -0.483394 -0.436859
102.050000 -0.517980 -0.436861
102.100000 -0.548295 -0.436862
102.150000 -0.572825 -0.436863
102.200000 -0.590356 -0.436865
102.250000 -0.600034 -0.436866
102.300000 -0.601406 -0.436867
102.350000 -0.594443 -0.436869
102.400000 -0.579537 -0.436870
102.450000 -0.557480 -0.436871
102.500000 -0.529423 -0.436873
102.550000 -0.496814 -0.436874
102.600000 -0.461327 -0.436875
102.650000 -0.424771 -0.436877
102.700000 -0.389002 -0.436878
102.750000 -0.355826 -0.436879
102.800000 -0.326911 -0.436880
102.850000 -0.303700 -0.436882
102.900000 -0.287341 -0.436883
102.950000 -0.278630 -0.436884
103.000000 -0.277971 -0.436885
103.050000 -0.285359 -0.436887
103.100000 -0.300383 -0.436888
103.150000 -0.322244 -0.436889
103.200000 -0.349805 -0.436890
103.250000 -0.381643 -0.436892
103.300000 -0.416126 -0.436893
103.350000 -0.451496 -0.436894
103.400000 -0.485959 -0.436895
103.450000 -0.517774 -0.436896
103.500000 -0.545343 -0.436897
103.550000 -0.567292 -0.436899
103.600000 -0.582536 -0.436900
103.650000 -0.590336 -0.436901
103.700000 -0.590331 -0.436902
103.750000 -0.582560 -0.436903
103.800000 -0.567453 -0.436904
103.850000 -0.545810 -0.436905
103.900000 -0.518757 -0.436906
103.950000 -0.487689 -0.436907
104.000000 -0.454199 -0.436909
104.050000 -0.419993 -0.436910
104.100000 -0.386806 -0.436911
104.150000 -0.356313 -0.436912
104.200000 -0.330045 -0.436913
104.250000 -0.309312 -0.436914
104.300000 -0.295137 -0.436915
104.350000 -0.288205 -0.436916
104.400000 -0.288835 -0.436917
104.450000 -0.296957 -0.436918
104.500000 -0.312125 -0.436919
104.550000 -0.333539 -0.436920
104.600000 -0.360083 -0.436921
104.650000 -0.390390 -0.436922
104.700000 -0.422909 -0.436923
104.750000 -0.455982 -0.436924
104.800000 -0.487933 -0.436925
104.850000 -0.517150 -0.436926
104.900000 -0.542167 -0.436927
104.950000 -0.561738 -0.436928
105.000000 -0.574898 -0.436929
105.050000 -0.581012 -0.436930
105.100000 -0.579802 -0.436931
105.150000 -0.571367 -0.436932
105.200000 -0.556167 -0.436933
105.250000 -0.535003 -0.436934
105.300000 -0.508976 -0.436934
105.350000 -0.479426 -0.436935
105.400000 -0.447866 -0.436936
105.450000 -0.415903 -0.436937
105.500000 -0.385157 -0.436938
105.550000 -0.357178 -0.436939
105.600000 -0.333370 -0.436940
105.650000 -0.314917 -0.436941
105.700000 -0.302730 -0.436942
105.750000 -0.297394 -0.436942
105.800000 -0.299147 -0.436943
105.850000 -0.307867 -0.436944
105.900000 -0.323080 -0.436945
105.950000 -0.343983 -0.436946
106.000000 -0.369493 -0.436947
106.050000 -0.398296 -0.436948
106.100000 -0.428919 -0.436948
106.150000 -0.459802 -0.436949
106.200000 -0.489382 -0.436950
106.250000 -0.516166 -0.436951
106.300000 -0.538813 -0.436952
106.350000 -0.556197 -0.436952
106.400000 -0.567461 -0.436953
106.450000 -0.572066 -0.436954
106.500000 -0.569809 -0.436955
106.550000 -0.560839 -0.436956
106.600000 -0.545640 -0.436956
106.650000 -0.525012 -0.436957
106.700000 -0.500024 -0.436958
106.750000 -0.471964 -0.436959
106.800000 -0.442265 -0.436959
106.850000 -0.412438 -0.436960
106.900000 -0.383995 -0.436961
106.950000 -0.358369 -0.436962
107.000000 -0.336843 -0.436962
107.050000 -0.320487 -0.436963
107.100000 -0.310105 -0.436964
107.150000 -0.306194 -0.436965
107.200000 -0.308921 -0.436965
107.250000 -0.318116 -0.436966
107.300000 -0.333284 -0.436967
107.350000 -0.353629 -0.436968
107.400000 -0.378094 -0.436968
107.450000 -0.405424 -0.436969
107.500000 -0.434220 -0.436970
107.550000 -0.463019 -0.436970
107.600000 -0.490362 -0.436971
107.650000 -0.514872 -0.436972
107.700000 -0.535322 -0.436972
107.750000 -0.550696 -0.436973
107.800000 -0.560241 -0.436974
107.850000 -0.563501 -0.436974
107.900000 -0.560340 -0.436975
107.950000 -0.550950 -0.436976
108.000000 -0.535835 -0.436976
108.050000 -0.515788 -0.436977
108.100000 -0.491847 -0.436978
108.150000 -0.465242 -0.436978
108.200000 -0.437334 -0.436979
108.250000 -0.409540 -0.436980
108.300000 -0.383267 -0.436980
108.350000 -0.359839 -0.436981
108.400000 -0.340427 -0.436981
108.450000 -0.325994 -0.436982
108.500000 -0.317249 -0.436983
108.550000 -0.314606 -0.436983
108.600000 -0.318170 -0.436984
108.650000 -0.327732 -0.436984
108.700000 -0.342778 -0.436985
108.750000 -0.362522 -0.436986
108.800000 -0.385940 -0.436986
108.850000 -0.411832 -0.436987
108.900000 -0.438873 -0.436987
108.950000 -0.465690 -0.436988
109.000000 -0.490927 -0.436989
109.050000 -0.513313 -0.436989
109.100000 -0.531729 -0.436990
109.150000 -0.545262 -0.436990
109.200000 -0.553250 -0.436991
109.250000 -0.555315 -0.436991
109.300000 -0.551381 -0.436992
109.350000 -0.541675 -0.436992
109.400000 -0.526716 -0.436993
109.450000 -0.507287 -0.436994
109.500000 -0.484392 -0.436994
109.550000 -0.459206 -0.436995
109.600000 -0.433016 -0.436995
109.650000 -0.407153 -0.436996
109.700000 -0.382923 -0.436996
109.750000 -0.361545 -0.436997
109.800000 -0.344089 -0.436997
109.850000 -0.331418 -0.436998
109.900000 -0.324152 -0.436998
109.950000 -0.322633 -0.436999
110.000000 -0.326911 -0.436999
110.050000 -0.336740 -0.437000
110.100000 -0.351598 -0.437000
110.150000 -0.370708 -0.437001
110.200000 -0.393083 -0.437001
110.250000 -0.417575 -0.437002
110.300000 -0.442933 -0.437002
110.350000 -0.467870 -0.437003
110.400000 -0.491127 -0.437003
110.450000 -0.511532 -0.437004
110.500000 -0.528069 -0.437004
110.550000 -0.539916 -0.437005
110.600000 -0.546498 -0.437005
110.650000 -0.547507 -0.437006
110.700000 -0.542917 -0.437006
110.750000 -0.532987 -0.437006
110.800000 -0.518247 -0.437007
110.850000 -0.499464 -0.437007
110.900000 -0.477609 -0.437008
110.950000 -0.453803 -0.437008
111.000000 -0.429260 -0.437009
111.050000 -0.405226 -0.437009
111.100000 -0.382916 -0.437010
111.150000 -0.363449 -0.437010
111.200000 -0.347799 -0.437010
111.250000 -0.336740 -0.437011
111.300000 -0.330808 -0.437011
111.350000 -0.330281 -0.437012
111.400000 -0.335159 -0.437012
111.450000 -0.345169 -0.437013
111.500000 -0.359781 -0.437013
111.550000 -0.378233 -0.437013
111.600000 -0.399572 -0.437014
111.650000 -0.422705 -0.437014
111.700000 -0.446452 -0.437015
111.750000 -0.469609 -0.437015
111.800000 -0.491005 -0.437015
111.850000 -0.509567 -0.437016
111.900000 -0.524368 -0.437016
111.950000 -0.534677 -0.437017
112.000000 -0.539993 -0.437017
112.050000 -0.540071 -0.437017
112.100000 -0.534933 -0.437018
112.150000 -0.524862 -0.437018
112.200000 -0.510393 -0.437019
112.250000 -0.492278 -0.437019
112.300000 -0.471453 -0.437019
112.350000 -0.448984 -0.437020
112.400000 -0.426015 -0.437020
112.450000 -0.403714 -0.437020
112.500000 -0.383204 -0.437021
112.550000 -0.365516 -0.437021
112.600000 -0.351532 -0.437021
112.650000 -0.341942 -0.437022
112.700000 -0.337210 -0.437022
112.750000 -0.337554 -0.437023
112.800000 -0.342930 -0.437023
112.850000 -0.353044 -0.437023
112.900000 -0.367361 -0.437024
112.950000 -0.385136 -0.437024
113.000000 -0.405453 -0.437024
113.050000 -0.427271 -0.437025
113.100000 -0.449480 -0.437025
113.150000 -0.470952 -0.437025
113.200000 -0.490604 -0.437026
113.250000 -0.507451 -0.437026
113.300000 -0.520653 -0.437026
113.350000 -0.529559 -0.437027
113.400000 -0.533738 -0.437027
113.450000 -0.533002 -0.437027
113.500000 -0.527412 -0.437028
113.550000 -0.517273 -0.437028
113.600000 -0.503120 -0.437028
113.650000 -0.485689 -0.437029
113.700000 -0.465878 -0.437029
113.750000 -0.444701 -0.437029
113.800000 -0.423236 -0.437030
113.850000 -0.402572 -0.437030
113.900000 -0.383750 -0.437030
113.950000 -0.367715 -0.437030
114.000000 -0.355265 -0.437031
114.050000 -0.347013 -0.437031
114.100000 -0.343357 -0.437031
114.150000 -0.344460 -0.437032
114.200000 -0.350244 -0.437032
114.250000 -0.360393 -0.437032
114.300000 -0.374374 -0.437033
114.350000 -0.391459 -0.437033
114.400000 -0.410771 -0.437033
114.450000 -0.431320 -0.437033
114.500000 -0.452060 -0.437034
114.550000 -0.471941 -0.437034
114.600000 -0.489960 -0.437034
114.650000 -0.505215 -0.437034
114.700000 -0.516946 -0.437035
114.750000 -0.524575 -0.437035
114.800000 -0.527738 -0.437035
114.850000 -0.526294 -0.437036
114.900000 -0.520338 -0.437036
114.950000 -0.510194 -0.437036
115.000000 -0.496396 -0.437036
115.050000 -0.479658 -0.437037
115.100000 -0.460842 -0.437037
115.150000 -0.440911 -0.437037
115.200000 -0.420879 -0.437037
115.250000 -0.401760 -0.437038
115.300000 -0.384518 -0.437038
115.350000 -0.370016 -0.437038
115.400000 -0.358976 -0.437038
115.450000 -0.351940 -0.437039
115.500000 -0.349245 -0.437039
115.550000 -0.351007 -0.437039
115.600000 -0.357115 -0.437039
115.650000 -0.367241 -0.437040
115.700000 -0.380851 -0.437040
115.750000 -0.397240 -0.437040
115.800000 -0.415567 -0.437040
115.850000 -0.434893 -0.437041
115.900000 -0.454235 -0.437041
115.950000 -0.472616 -0.437041
116.000000 -0.489108 -0.437041
116.050000 -0.502886 -0.437042
116.100000 -0.513265 -0.437042
116.150000 -0.519737 -0.437042
116.200000 -0.521992 -0.437042
116.250000 -0.519936 -0.437043
116.300000 -0.513694 -0.437043
116.350000 -0.503601 -0.437043
116.400000 -0.490188 -0.437043
116.450000 -0.474148 -0.437043
116.500000 -0.456306 -0.437044
116.550000 -0.437574 -0.437044
116.600000 -0.418905 -0.437044
116.650000 -0.401242 -0.437044
116.700000 -0.385476 -0.437045
116.750000 -0.372395 -0.437045
116.800000 -0.362649 -0.437045
116.850000 -0.356715 -0.437045
116.900000 -0.354876 -0.437045
116.950000 -0.357205 -0.437046
117.000000 -0.363564 -0.437046
117.050000 -0.373613 -0.437046
117.100000 -0.386824 -0.437046
117.150000 -0.402515 -0.437046
117.200000 -0.419880 -0.437047
117.250000 -0.438030 -0.437047
117.300000 -0.456045 -0.437047
117.350000 -0.473012 -0.437047
117.400000 -0.488078 -0.437047
117.450000 -0.500489 -0.437048
117.500000 -0.509629 -0.437048
117.550000 -0.515052 -0.437048
117.600000 -0.516501 -0.437048
117.650000 -0.513921 -0.437048
117.700000 -0.507462 -0.437049
117.750000 -0.497469 -0.437049
117.800000 -0.484466 -0.437049
117.850000 -0.469124 -0.437049
117.900000 -0.452232 -0.437049
117.950000 -0.434651 -0.437049
118.000000 -0.417276 -0.437050
118.050000 -0.400984 -0.437050
118.100000 -0.386595 -0.437050
118.150000 -0.374829 -0.437050
118.200000 -0.366268 -0.437050
118.250000 -0.361332 -0.437051
118.300000 -0.360251 -0.437051
118.350000 -0.363063 -0.437051
118.400000 -0.369607 -0.437051
118.450000 -0.379534 -0.437051
118.500000 -0.392325 -0.437051
118.550000 -0.407319 -0.437052
118.600000 -0.423747 -0.437052
118.650000 -0.440770 -0.437052
118.700000 -0.457524 -0.437052
118.750000 -0.473162 -0.437052
118.800000 -0.486898 -0.437052
118.850000 -0.498045 -0.437053
118.900000 -0.506051 -0.437053
118.950000 -0.510527 -0.437053
119.000000 -0.511263 -0.437053
119.050000 -0.508238 -0.437053
119.100000 -0.501625 -0.437053
119.150000 -0.491774 -0.437054
119.200000 -0.479201 -0.437054
119.250000 -0.464553 -0.437054
119.300000 -0.448584 -0.437054
119.350000 -0.432107 -0.437054
119.400000 -0.415958 -0.437054
119.450000 -0.400955 -0.437054
119.500000 -0.387850 -0.437055
119.550000 -0.377298 -0.437055
119.600000 -0.369821 -0.437055
119.650000 -0.365784 -0.437055
119.700000 -0.365373 -0.437055
119.750000 -0.368592 -0.437055
119.800000 -0.375262 -0.437055
119.850000 -0.385028 -0.437056
119.900000 -0.397381 -0.437056
119.950000 -0.411684 -0.437056
120.000000 -0.427203 -0.437056
120.050000 -0.443147 -0.437056
120.100000 -0.458706 -0.437056
120.150000 -0.473096 -0.437056
120.200000 -0.485593 -0.437057
120.250000 -0.495573 -0.437057
120.300000 -0.502544 -0.437057
120.350000 -0.506167 -0.437057
120.400000 -0.506274 -0.437057
120.450000 -0.502877 -0.437057
120.500000 -0.496165 -0.437057
120.550000 -0.486492 -0.437058
120.600000 -0.474363 -0.437058
120.650000 -0.460404 -0.437058
120.700000 -0.445329 -0.437058
120.750000 -0.429907 -0.437058
120.800000 -0.414921 -0.437058
120.850000 -0.401126 -0.437058
120.900000 -0.389216 -0.437058
120.950000 -0.379784 -0.437059
121.000000 -0.373297 -0.437059
121.050000 -0.370068 -0.437059
121.100000 -0.370245 -0.437059
121.150000 -0.373804 -0.437059
121.200000 -0.380547 -0.437059
121.250000 -0.390119 -0.437059
121.300000 -0.402022 -0.437059
121.350000 -0.415642 -0.437060
121.400000 -0.430280 -0.437060
121.450000 -0.445193 -0.437060
121.500000 -0.459622 -0.437060
121.550000 -0.472841 -0.437060
121.600000 -0.484186 -0.437060
121.650000 -0.493091 -0.437060
121.700000 -0.499118 -0.437060
121.750000 -0.501975 -0.437060
121.800000 -0.501532 -0.437061
121.850000 -0.497828 -0.437061
121.900000 -0.491065 -0.437061
121.950000 -0.481601 -0.437061
122.000000 -0.469927 -0.437061
122.050000 -0.456646 -0.437061
122.100000 -0.442436 -0.437061
122.150000 -0.428021 -0.437061
122.200000 -0.414133 -0.437061
122.250000 -0.401472 -0.437062
122.300000 -0.390672 -0.437062
122.350000 -0.382272 -0.437062
122.400000 -0.376686 -0.437062
122.450000 -0.374182 -0.437062
122.500000 -0.374873 -0.437062
122.550000 -0.378709 -0.437062
122.600000 -0.385480 -0.437062
122.650000 -0.394830 -0.437062
122.700000 -0.406273 -0.437062
122.750000 -0.419221 -0.437063
122.800000 -0.433010 -0.437063
122.850000 -0.446938 -0.437063
122.900000 -0.460301 -0.437063
122.950000 -0.472423 -0.437063
123.000000 -0.482698 -0.437063
123.050000 -0.490614 -0.437063
123.100000 -0.495782 -0.437063
123.150000 -0.497952 -0.437063
123.200000 -0.497030 -0.437063
123.250000 -0.493077 -0.437064
123.300000 -0.486308 -0.437064
123.350000 -0.477078 -0.437064
123.400000 -0.465866 -0.437064
123.450000 -0.453250 -0.437064
123.500000 -0.439875 -0.437064
123.550000 -0.426421 -0.437064
123.600000 -0.413569 -0.437064
123.650000 -0.401968 -0.437064
123.700000 -0.392199 -0.437064
123.750000 -0.384748 -0.437064
123.800000 -0.379980 -0.437065
123.850000 -0.378124 -0.437065
123.900000 -0.379261 -0.437065
123.950000 -0.383318 -0.437065
124.000000 -0.390077 -0.437065
124.050000 -0.399182 -0.437065
124.100000 -0.410161 -0.437065
124.150000 -0.422450 -0.437065
124.200000 -0.435420 -0.437065
124.250000 -0.448412 -0.437065
124.300000 -0.460767 -0.437065
124.350000 -0.471864 -0.437065
124.400000 -0.481147 -0.437066
124.450000 -0.488154 -0.437066
124.500000 -0.492542 -0.437066
124.550000 -0.494100 -0.437066
124.600000 -0.492764 -0.437066
124.650000 -0.488615 -0.437066
124.700000 -0.481877 -0.437066
124.750000 -0.472902 -0.437066
124.800000 -0.462156 -0.437066
124.850000 -0.450191 -0.437066
124.900000 -0.437619 -0.437066
124.950000 -0.425078 -0.437066
125.000000 -0.413204 -0.437066
125.050000 -0.402594 -0.437067
125.100000 -0.393780 -0.437067
125.150000 -0.387199 -0.437067
125.200000 -0.383174 -0.437067
125.250000 -0.381895 -0.437067
125.300000 -0.383416 -0.437067
125.350000 -0.387645 -0.437067
125.400000 -0.394356 -0.437067
125.450000 -0.403196 -0.437067
125.500000 -0.413709 -0.437067
125.550000 -0.425355 -0.437067
125.600000 -0.437538 -0.437067
125.650000 -0.449639 -0.437067
125.700000 -0.461046 -0.437067
125.750000 -0.471185 -0.437067
125.800000 -0.479549 -0.437068
125.850000 -0.485723 -0.437068
125.900000 -0.489404 -0.437068
125.950000 -0.490419 -0.437068
126.000000 -0.488728 -0.437068
126.050000 -0.484430 -0.437068
126.100000 -0.477755 -0.437068
126.150000 -0.469053 -0.437068
126.200000 -0.458773 -0.437068
126.250000 -0.447443 -0.437068
126.300000 -0.435641 -0.437068
126.350000 -0.423969 -0.437068
126.400000 -0.413015 -0.437068
126.450000 -0.403330 -0.437068
126.500000 -0.395400 -0.437068
126.550000 -0.389616 -0.437069
126.600000 -0.386262 -0.437069
126.650000 -0.385496 -0.437069
126.700000 -0.387344 -0.437069
126.750000 -0.391700 -0.437069
126.800000 -0.398332 -0.437069
126.850000 -0.406894 -0.437069
126.900000 -0.416942 -0.437069
126.950000 -0.427961 -0.437069
127.000000 -0.439388 -0.437069
127.050000 -0.450644 -0.437069
127.100000 -0.461159 -0.437069
127.150000 -0.470405 -0.437069
127.200000 -0.477919 -0.437069
127.250000 -0.483330 -0.437069
127.300000 -0.486373 -0.437069
127.350000 -0.486906 -0.437069
127.400000 -0.484914 -0.437070
127.450000 -0.480509 -0.437070
127.500000 -0.473927 -0.437070
127.550000 -0.465510 -0.437070
127.600000 -0.455694 -0.437070
127.650000 -0.444981 -0.437070
127.700000 -0.433919 -0.437070
127.750000 -0.423069 -0.437070
127.800000 -0.412980 -0.437070
127.850000 -0.404158 -0.437070
127.900000 -0.397044 -0.437070
127.950000 -0.391990 -0.437070
128.000000 -0.389242 -0.437070
128.050000 -0.388928 -0.437070
128.100000 -0.391052 -0.437070
128.150000 -0.395496 -0.437070
128.200000 -0.402023 -0.437070
128.250000 -0.410293 -0.437070
128.300000 -0.419879 -0.437070
128.350000 -0.430290 -0.437070
128.400000 -0.440994 -0.437071
128.450000 -0.451449 -0.437071
128.500000 -0.461127 -0.437071
128.550000 -0.469540 -0.437071
128.600000 -0.476270 -0.437071
128.650000 -0.480984 -0.437071
128.700000 -0.483452 -0.437071
128.750000 -0.483561 -0.437071
128.800000 -0.481316 -0.437071
128.850000 -0.476842 -0.437071
128.900000 -0.470376 -0.437071
128.950000 -0.462255 -0.437071
129.000000 -0.452898 -0.437071
129.050000 -0.442784 -0.437071
129.100000 -0.432429 -0.437071
129.150000 -0.422359 -0.437071
129.200000 -0.413081 -0.437071
129.250000 -0.405062 -0.437071
129.300000 -0.398701 -0.437071
129.350000 -0.394312 -0.437071
129.400000 -0.392109 -0.437071
129.450000 -0.392193 -0.437071
129.500000 -0.394548 -0.437072
129.550000 -0.399044 -0.437072
129.600000 -0.405443 -0.437072
129.650000 -0.413414 -0.437072
129.700000 -0.422543 -0.437072
129.750000 -0.432365 -0.437072
129.800000 -0.442378 -0.437072
129.850000 -0.452075 -0.437072
129.900000 -0.460967 -0.437072
129.950000 -0.468606 -0.437072
130.000000 -0.474613 -0.437072
130.050000 -0.478691 -0.437072
130.100000 -0.480643 -0.437072
130.150000 -0.480380 -0.437072
130.200000 -0.477926 -0.437072
130.250000 -0.473416 -0.437072
130.300000 -0.467087 -0.437072
130.350000 -0.459270 -0.437072
130.400000 -0.450365 -0.437072
130.450000 -0.440831 -0.437072
130.500000 -0.431151 -0.437072
130.550000 -0.421818 -0.437072
130.600000 -0.413300 -0.437072
130.650000 -0.406027 -0.437072
130.700000 -0.400360 -0.437072
130.750000 -0.396578 -0.437072
130.800000 -0.394864 -0.437073
130.850000 -0.395295 -0.437073
130.900000 -0.397838 -0.437073
130.950000 -0.402355 -0.437073
131.000000 -0.408609 -0.437073
131.050000 -0.416273 -0.437073
131.100000 -0.424954 -0.437073
131.150000 -0.434206 -0.437073
131.200000 -0.443560 -0.437073
131.250000 -0.452541 -0.437073
131.300000 -0.460696 -0.437073
131.350000 -0.467617 -0.437073
131.400000 -0.472959 -0.437073
131.450000 -0.476458 -0.437073
131.500000 -0.477947 -0.437073
131.550000 -0.477361 -0.437073
131.600000 -0.474737 -0.437073
131.650000 -0.470220 -0.437073
131.700000 -0.464046 -0.437073
131.750000 -0.456536 -0.437073
131.800000 -0.448077 -0.437073
131.850000 -0.439101 -0.437073
131.900000 -0.430065 -0.437073
131.950000 -0.421427 -0.437073
132.000000 -0.413622 -0.437073
132.050000 -0.407041 -0.437073
132.100000 -0.402012 -0.437073
132.150000 -0.398781 -0.437073
132.200000 -0.397504 -0.437073
132.250000 -0.398237 -0.437073
132.300000 -0.400931 -0.437073
132.350000 -0.405442 -0.437074
132.400000 -0.411533 -0.437074
132.450000 -0.418888 -0.437074
132.500000 -0.427128 -0.437074
132.550000 -0.435833 -0.437074
132.600000 -0.444559 -0.437074
132.650000 -0.452864 -0.437074
132.700000 -0.460331 -0.437074
132.750000 -0.466585 -0.437074
132.800000 -0.471315 -0.437074
132.850000 -0.474289 -0.437074
132.900000 -0.475366 -0.437074
132.950000 -0.474499 -0.437074
133.000000 -0.471742 -0.437074
133.050000 -0.467243 -0.437074
133.100000 -0.461238 -0.437074
133.150000 -0.454039 -0.437074
133.200000 -0.446015 -0.437074
133.250000 -0.437577 -0.437074
133.300000 -0.429153 -0.437074
133.350000 -0.421171 -0.437074
133.400000 -0.414031 -0.437074
133.450000 -0.408092 -0.437074
133.500000 -0.403649 -0.437074
133.550000 -0.400918 -0.437074
133.600000 -0.400031 -0.437074
133.650000 -0.401023 -0.437074
133.700000 -0.403835 -0.437074
133.750000 -0.408316 -0.437074
133.800000 -0.414232 -0.437074
133.850000 -0.421276 -0.437074
133.900000 -0.429086 -0.437074
133.950000 -0.437263 -0.437074
134.000000 -0.445392 -0.437074
134.050000 -0.453061 -0.437074
134.100000 -0.459884 -0.437074
134.150000 -0.465520 -0.437074
134.200000 -0.469690 -0.437074
134.250000 -0.472189 -0.437075
134.300000 -0.472898 -0.437075
134.350000 -0.471791 -0.437075
134.400000 -0.468931 -0.437075
134.450000 -0.464473 -0.437075
134.500000 -0.458649 -0.437075
134.550000 -0.451760 -0.437075
134.600000 -0.444161 -0.437075
134.650000 -0.436240 -0.437075
134.700000 -0.428398 -0.437075
134.750000 -0.421033 -0.437075
134.800000 -0.414515 -0.437075
134.850000 -0.409170 -0.437075
134.900000 -0.405263 -0.437075
134.950000 -0.402985 -0.437075
135.000000 -0.402443 -0.437075
135.050000 -0.403657 -0.437075
135.100000 -0.406557 -0.437075
135.150000 -0.410987 -0.437075
135.200000 -0.416717 -0.437075
135.250000 -0.423451 -0.437075
135.300000 -0.430842 -0.437075
135.350000 -0.438513 -0.437075
135.400000 -0.446075 -0.437075
135.450000 -0.453146 -0.437075
135.500000 -0.459369 -0.437075
135.550000 -0.464434 -0.437075
135.600000 -0.468090 -0.437075
135.650000 -0.470159 -0.437075
135.700000 -0.470543 -0.437075
135.750000 -0.469232 -0.437075
135.800000 -0.466298 -0.437075
135.850000 -0.461900 -0.437075
135.900000 -0.456266 -0.437075
135.950000 -0.449687 -0.437075
136.000000 -0.442501 -0.437075
136.050000 -0.435075 -0.437075
136.100000 -0.427785 -0.437075
136.150000 -0.421000 -0.437075
136.200000 -0.415062 -0.437075
136.250000 -0.410265 -0.437075
136.300000 -0.406849 -0.437075
136.350000 -0.404979 -0.437075
136.400000 -0.404743 -0.437075
136.450000 -0.406144 -0.437075
136.500000 -0.409105 -0.437075
136.550000 -0.413467 -0.437075
136.600000 -0.419003 -0.437075
136.650000 -0.425428 -0.437075
136.700000 -0.432412 -0.437075
136.750000 -0.439599 -0.437075
136.800000 -0.446624 -0.437076
136.850000 -0.453132 -0.437076
136.900000 -0.458796 -0.437076
136.950000 -0.463334 -0.437076
137.000000 -0.466521 -0.437076
137.050000 -0.468203 -0.437076
137.100000 -0.468300 -0.437076
137.150000 -0.466817 -0.437076
137.200000 -0.463835 -0.437076
137.250000 -0.459513 -0.437076
137.300000 -0.454076 -0.437076
137.350000 -0.447804 -0.437076
137.400000 -0.441019 -0.437076
137.450000 -0.434066 -0.437076
137.500000 -0.427299 -0.437076
137.550000 -0.421059 -0.437076
137.600000 -0.415660 -0.437076
137.650000 -0.411370 -0.437076
137.700000 -0.408402 -0.437076
137.750000 -0.406899 -0.437076
137.800000 -0.406931 -0.437076
137.850000 -0.408489 -0.437076
137.900000 -0.411487 -0.437076
137.950000 -0.415765 -0.437076
138.000000 -0.421102 -0.437076
138.050000 -0.427222 -0.437076
138.100000 -0.433812 -0.437076
138.150000 -0.440535 -0.437076
138.200000 -0.447052 -0.437076
138.250000 -0.453032 -0.437076
138.300000 -0.458177 -0.437076
138.350000 -0.462228 -0.437076
138.400000 -0.464988 -0.437076
138.450000 -0.466321 -0.437076
138.500000 -0.466167 -0.437076
138.550000 -0.464542 -0.437076
138.600000 -0.461534 -0.437076
138.650000 -0.457303 -0.437076
138.700000 -0.452067 -0.437076
138.750000 -0.446098 -0.437076
138.800000 -0.439700 -0.437076
138.850000 -0.433200 -0.437076
138.900000 -0.426928 -0.437076
138.950000 -0.421198 -0.437076
139.000000 -0.416300 -0.437076
139.050000 -0.412477 -0.437076
139.100000 -0.409917 -0.437076
139.150000 -0.408744 -0.437076
139.200000 -0.409011 -0.437076
139.250000 -0.410697 -0.437076
139.300000 -0.413710 -0.437076
139.350000 -0.417892 -0.437076
139.400000 -0.423025 -0.437076
139.450000 -0.428845 -0.437076
139.500000 -0.435054 -0.437076
139.550000 -0.441336 -0.437076
139.600000 -0.447372 -0.437076
139.650000 -0.452858 -0.437076
139.700000 -0.457519 -0.437076
139.750000 -0.461124 -0.437076
139.800000 -0.463494 -0.437076
139.850000 -0.464515 -0.437076
139.900000 -0.464142 -0.437076
139.950000 -0.462402 -0.437076
140.000000 -0.459387 -0.437076
140.050000 -0.455258 -0.437076
140.100000 -0.450228 -0.437076
140.150000 -0.444556 -0.437076
140.200000 -0.438532 -0.437076
140.250000 -0.432464 -0.437076
140.300000 -0.426658 -0.437076
140.350000 -0.421407 -0.437076
140.400000 -0.416974 -0.437076
140.450000 -0.413579 -0.437076
140.500000 -0.411391 -0.437076
140.550000 -0.410513 -0.437076
140.600000 -0.410983 -0.437077
140.650000 -0.412773 -0.437077
140.700000 -0.415784 -0.437077
140.750000 -0.419858 -0.437077
140.800000 -0.424785 -0.437077
140.850000 -0.430310 -0.437077
140.900000 -0.436152 -0.437077
140.950000 -0.442013 -0.437077
141.000000 -0.447596 -0.437077
141.050000 -0.452620 -0.437077
141.100000 -0.456833 -0.437077
141.150000 -0.460026 -0.437077
141.200000 -0.462042 -0.437077
141.250000 -0.462785 -0.437077
141.300000 -0.462223 -0.437077
141.350000 -0.460391 -0.437077
141.400000 -0.457387 -0.437077
141.450000 -0.453370 -0.437077
141.500000 -0.448547 -0.437077
141.550000 -0.443166 -0.437077
141.600000 -0.437503 -0.437077
141.650000 -0.431845 -0.437077
141.700000 -0.426478 -0.437077
141.750000 -0.421674 -0.437077
141.800000 -0.417673 -0.437077
141.850000 -0.414672 -0.437077
141.900000 -0.412820 -0.437077
141.950000 -0.412205 -0.437077
142.000000 -0.412852 -0.437077
142.050000 -0.414721 -0.437077
142.100000 -0.417714 -0.437077
142.150000 -0.421672 -0.437077
142.200000 -0.426392 -0.437077
142.250000 -0.431629 -0.437077
142.300000 -0.437118 -0.437077
142.350000 -0.442578 -0.437077
142.400000 -0.447734 -0.437077
142.450000 -0.452326 -0.437077
142.500000 -0.456124 -0.437077
142.550000 -0.458940 -0.437077
142.600000 -0.460636 -0.437077
142.650000 -0.461131 -0.437077
142.700000 -0.460406 -0.437077
142.750000 -0.458504 -0.437077
142.800000 -0.455526 -0.437077
142.850000 -0.451629 -0.437077
142.900000 -0.447013 -0.437077
142.950000 -0.441916 -0.437077
143.000000 -0.436599 -0.437077
143.050000 -0.431331 -0.437077
143.100000 -0.426379 -0.437077
143.150000 -0.421993 -0.437077
143.200000 -0.418390 -0.437077
143.250000 -0.415751 -0.437077
143.300000 -0.414204 -0.437077
143.350000 -0.413822 -0.437077
143.400000 -0.414618 -0.437077
143.450000 -0.416548 -0.437077
143.500000 -0.419508 -0.437077
143.550000 -0.423344 -0.437077
143.600000 -0.427856 -0.437077
143.650000 -0.432813 -0.437077
143.700000 -0.437963 -0.437077
143.750000 -0.443043 -0.437077
143.800000 -0.447797 -0.437077
143.850000 -0.451986 -0.437077
143.900000 -0.455400 -0.437077
143.950000 -0.457871 -0.437077
144.000000 -0.459277 -0.437077
144.050000 -0.459553 -0.437077
144.100000 -0.458689 -0.437077
144.150000 -0.456736 -0.437077
144.200000 -0.453797 -0.437077
144.250000 -0.450026 -0.437077
144.300000 -0.445617 -0.437077
144.350000 -0.440797 -0.437077
144.400000 -0.435811 -0.437077
144.450000 -0.430914 -0.437077
144.500000 -0.426351 -0.437077
144.550000 -0.422353 -0.437077
144.600000 -0.419120 -0.437077
144.650000 -0.416811 -0.437077
144.700000 -0.415539 -0.437077
144.750000 -0.415363 -0.437077
144.800000 -0.416287 -0.437077
144.850000 -0.418259 -0.437077
144.900000 -0.421174 -0.437077
144.950000 -0.424881 -0.437077
145.000000 -0.429187 -0.437077
145.050000 -0.433872 -0.437077
145.100000 -0.438697 -0.437077
145.150000 -0.443417 -0.437077
145.200000 -0.447794 -0.437077
145.250000 -0.451607 -0.437077
145.300000 -0.454667 -0.437077
145.350000 -0.456822 -0.437077
145.400000 -0.457967 -0.437077
145.450000 -0.458049 -0.437077
145.500000 -0.457069 -0.437077
145.550000 -0.455082 -0.437077
145.600000 -0.452193 -0.437077
145.650000 -0.448553 -0.437077
145.700000 -0.444349 -0.437077
145.750000 -0.439797 -0.437077
145.800000 -0.435129 -0.437077
145.850000 -0.430582 -0.437077
145.900000 -0.426385 -0.437077
145.950000 -0.422749 -0.437077
146.000000 -0.419856 -0.437077
146.050000 -0.417849 -0.437077
146.100000 -0.416824 -0.437077
146.150000 -0.416830 -0.437077
146.200000 -0.417860 -0.437077
146.250000 -0.419858 -0.437077
146.300000 -0.422719 -0.437077
146.350000 -0.426292 -0.437077
146.400000 -0.430395 -0.437077
146.450000 -0.434816 -0.437077
146.500000 -0.439331 -0.437077
146.550000 -0.443710 -0.437077
146.600000 -0.447732 -0.437077
146.650000 -0.451196 -0.437077
146.700000 -0.453929 -0.437077
146.750000 -0.455796 -0.437077
146.800000 -0.456706 -0.437077
146.850000 -0.456619 -0.437077
146.900000 -0.455543 -0.437077
146.950000 -0.453537 -0.437077
147.000000 -0.450707 -0.437077
147.050000 -0.447201 -0.437077
147.100000 -0.443200 -0.437077
147.150000 -0.438907 -0.437077
147.200000 -0.434542 -0.437077
147.250000 -0.430327 -0.437077
147.300000 -0.426473 -0.437077
147.350000 -0.423174 -0.437077
147.400000 -0.420595 -0.437077
147.450000 -0.418862 -0.437077
147.500000 -0.418060 -0.437077
147.550000 -0.418224 -0.437077
147.600000 -0.419342 -0.437077
147.650000 -0.421352 -0.437077
147.700000 -0.424148 -0.437077
147.750000 -0.427586 -0.437077
147.800000 -0.431488 -0.437077
147.850000 -0.435654 -0.437077
147.900000 -0.439873 -0.437077
147.950000 -0.443930 -0.437077
148.000000 -0.447620 -0.437077
148.050000 -0.450760 -0.437077
148.100000 -0.453192 -0.437078
148.150000 -0.454796 -0.437078
148.200000 -0.455496 -0.437078
148.250000 -0.455261 -0.437078
148.300000 -0.454106 -0.437078
148.350000 -0.452095 -0.437078
148.400000 -0.449333 -0.437078
148.450000 -0.445964 -0.437078
148.500000 -0.442161 -0.437078
148.550000 -0.438119 -0.437078
148.600000 -0.434043 -0.437078
148.650000 -0.430140 -0.437078
148.700000 -0.426608 -0.437078
148.750000 -0.423621 -0.437078
148.800000 -0.421331 -0.437078
148.850000 -0.419848 -0.437078
148.900000 -0.419245 -0.437078
148.950000 -0.419547 -0.437078
149.000000 -0.420735 -0.437078
149.050000 -0.422744 -0.437078
149.100000 -0.425470 -0.437078
149.150000 -0.428770 -0.437078
149.200000 -0.432475 -0.437078
149.250000 -0.436396 -0.437078
149.300000 -0.440332 -0.437078
149.350000 -0.444085 -0.437078
149.400000 -0.447465 -0.437078
149.450000 -0.450303 -0.437078
149.500000 -0.452459 -0.437078
149.550000 -0.453825 -0.437078
149.600000 -0.454337 -0.437078
149.650000 -0.453974 -0.437078
149.700000 -0.452756 -0.437078
149.750000 -0.450751 -0.437078
149.800000 -0.448063 -0.437078
149.850000 -0.444832 -0.437078
149.900000 -0.441224 -0.437078
149.950000 -0.437423 -0.437078
150.000000 -0.433623 -0.437078
150.050000 -0.430015 -0.437078
150.100000 -0.426783 -0.437078
150.150000 -0.424086 -0.437078
150.200000 -0.422061 -0.437078
150.250000 -0.420805 -0.437078
150.300000 -0.420378 -0.437078
150.350000 -0.420800 -0.437078
150.400000 -0.422043 -0.437078
150.450000 -0.424041 -0.437078
150.500000 -0.426689 -0.437078
150.550000 -0.429851 -0.437078
150.600000 -0.433364 -0.437078
150.650000 -0.437048 -0.437078
150.700000 -0.440716 -0.437078
150.750000 -0.444182 -0.437078
150.800000 -0.447272 -0.437078
150.850000 -0.449831 -0.437078
150.900000 -0.451733 -0.437078
150.950000 -0.452884 -0.437078
151.000000 -0.453229 -0.437078
151.050000 -0.452755 -0.437078
151.100000 -0.451490 -0.437078
151.150000 -0.449501 -0.437078
151.200000 -0.446892 -0.437078
151.250000 -0.443800 -0.437078
151.300000 -0.440382 -0.437078
151.350000 -0.436812 -0.437078
151.400000 -0.433274 -0.437078
151.450000 -0.429944 -0.437078
151.500000 -0.426992 -0.437078
151.550000 -0.424564 -0.437078
151.600000 -0.422781 -0.437078
151.650000 -0.421731 -0.437078
151.700000 -0.421462 -0.437078
151.750000 -0.421985 -0.437078
151.800000 -0.423269 -0.437078
151.850000 -0.425246 -0.437078
151.900000 -0.427813 -0.437078
151.950000 -0.430837 -0.437078
152.000000 -0.434162 -0.437078
152.050000 -0.437619 -0.437078
152.100000 -0.441032 -0.437078
152.150000 -0.444228 -0.437078
152.200000 -0.447048 -0.437078
152.250000 -0.449349 -0.437078
152.300000 -0.451018 -0.437078
152.350000 -0.451974 -0.437078
152.400000 -0.452171 -0.437078
152.450000 -0.451603 -0.437078
152.500000 -0.450303 -0.437078
152.550000 -0.448339 -0.437078
152.600000 -0.445815 -0.437078
152.650000 -0.442860 -0.437078
152.700000 -0.439627 -0.437078
152.750000 -0.436280 -0.437078
152.800000 -0.432989 -0.437078
152.850000 -0.429921 -0.437078
152.900000 -0.427230 -0.437078
152.950000 -0.425050 -0.437078
153.000000 -0.423490 -0.437078
153.050000 -0.422624 -0.437078
153.100000 -0.422495 -0.437078
153.150000 -0.423104 -0.437078
153.200000 -0.424418 -0.437078
153.250000 -0.426366 -0.437078
153.300000 -0.428847 -0.437078
153.350000 -0.431733 -0.437078
153.400000 -0.434876 -0.437078
153.450000 -0.438115 -0.437078
153.500000 -0.441287 -0.437078
153.550000 -0.444230 -0.437078
153.600000 -0.446797 -0.437078
153.650000 -0.448860 -0.437078
153.700000 -0.450317 -0.437078
153.750000 -0.451097 -0.437078
153.800000 -0.451163 -0.437078
153.850000 -0.450516 -0.437078
153.900000 -0.449192 -0.437078
153.950000 -0.447261 -0.437078
154.000000 -0.444824 -0.437078
154.050000 -0.442006 -0.437078
154.100000 -0.438952 -0.437078
154.150000 -0.435818 -0.437078
154.200000 -0.432762 -0.437078
154.250000 -0.429940 -0.437078
154.300000 -0.427492 -0.437078
154.350000 -0.425541 -0.437078
154.400000 -0.424184 -0.437078
154.450000 -0.423485 -0.437078
154.500000 -0.423478 -0.437078
154.550000 -0.424160 -0.437078
154.600000 -0.425492 -0.437078
154.650000 -0.427404 -0.437078
154.700000 -0.429796 -0.437078
154.750000 -0.432546 -0.437078
154.800000 -0.435513 -0.437078
154.850000 -0.438544 -0.437078
154.900000 -0.441487 -0.437078
154.950000 -0.444192 -0.437078
155.000000 -0.446525 -0.437078
155.050000 -0.448368 -0.437078
155.100000 -0.449631 -0.437078
155.150000 -0.450253 -0.437078
155.200000 -0.450204 -0.437078
155.250000 -0.449492 -0.437078
155.300000 -0.448154 -0.437078
155.350000 -0.446262 -0.437078
155.400000 -0.443914 -0.437078
155.450000 -0.441232 -0.437078
155.500000 -0.438352 -0.437078
155.550000 -0.435421 -0.437078
155.600000 -0.432588 -0.437078
155.650000 -0.429995 -0.437078
155.700000 -0.427774 -0.437078
155.750000 -0.426034 -0.437078
155.800000 -0.424861 -0.437078
155.850000 -0.424313 -0.437078
155.900000 -0.424413 -0.437078
155.950000 -0.425154 -0.437078
156.000000 -0.426494 -0.437078
156.050000 -0.428365 -0.437078
156.100000 -0.430667 -0.437078
156.150000 -0.433283 -0.437078
156.200000 -0.436078 -0.437078
156.250000 -0.438911 -0.437078
156.300000 -0.441638 -0.437078
156.350000 -0.444121 -0.437078
156.400000 -0.446235 -0.437078
156.450000 -0.447876 -0.437078
156.500000 -0.448962 -0.437078
156.550000 -0.449442 -0.437078
156.600000 -0.449294 -0.437078
156.650000 -0.448528 -0.437078
156.700000 -0.447186 -0.437078
156.750000 -0.445338 -0.437078
156.800000 -0.443082 -0.437078
156.850000 -0.440532 -0.437078
156.900000 -0.437819 -0.437078
156.950000 -0.435082 -0.437078
157.000000 -0.432459 -0.437078
157.050000 -0.430083 -0.437078
157.100000 -0.428071 -0.437078
157.150000 -0.426525 -0.437078
157.200000 -0.425521 -0.437078
157.250000 -0.425106 -0.437078
157.300000 -0.425300 -0.437078
157.350000 -0.426088 -0.437078
157.400000 -0.427430 -0.437078
157.450000 -0.429253 -0.437078
157.500000 -0.431464 -0.437078
157.550000 -0.433948 -0.437078
157.600000 -0.436579 -0.437078
157.650000 -0.439222 -0.437078
157.700000 -0.441745 -0.437078
157.750000 -0.444019 -0.437078
157.800000 -0.445931 -0.437078
157.850000 -0.447386 -0.437078
157.900000 -0.448312 -0.437078
157.950000 -0.448665 -0.437078
158.000000 -0.448430 -0.437078
158.050000 -0.447621 -0.437078
158.100000 -0.446283 -0.437078
158.150000 -0.444485 -0.437078
158.200000 -0.442320 -0.437078
158.250000 -0.439901 -0.437078
158.300000 -0.437350 -0.437078
158.350000 -0.434797 -0.437078
158.400000 -0.432372 -0.437078
158.450000 -0.430197 -0.437078
158.500000 -0.428380 -0.437078
158.550000 -0.427013 -0.437078
158.600000 -0.426161 -0.437078
158.650000 -0.425866 -0.437078
158.700000 -0.426140 -0.437078
158.750000 -0.426966 -0.437078
158.800000 -0.428301 -0.437078
158.850000 -0.430073 -0.437078
158.900000 -0.432191 -0.437078
158.950000 -0.434547 -0.437078
159.000000 -0.437019 -0.437078
159.050000 -0.439483 -0.437078
159.100000 -0.441813 -0.437078
159.150000 -0.443893 -0.437078
159.200000 -0.445618 -0.437078
159.250000 -0.446902 -0.437078
159.300000 -0.447682 -0.437078
159.350000 -0.447923 -0.437078
159.400000 -0.447613 -0.437078
159.450000 -0.446771 -0.437078
159.500000 -0.445443 -0.437078
159.550000 -0.443698 -0.437078
159.600000 -0.441625 -0.437078
159.650000 -0.439333 -0.437078
159.700000 -0.436937 -0.437078
159.750000 -0.434560 -0.437078
159.800000 -0.432322 -0.437078
159.850000 -0.430335 -0.437078
159.900000 -0.428698 -0.437078
159.950000 -0.427494 -0.437078
160.000000 -0.426781 -0.437078
160.050000 -0.426592 -0.437078
160.100000 -0.426935 -0.437078
160.150000 -0.427790 -0.437078
160.200000 -0.429111 -0.437078
160.250000 -0.430828 -0.437078
160.300000 -0.432854 -0.437078
160.350000 -0.435085 -0.437078
160.400000 -0.437405 -0.437078
160.450000 -0.439698 -0.437078
160.500000 -0.441847 -0.437078
160.550000 -0.443745 -0.437078
160.600000 -0.445296 -0.437078
160.650000 -0.446424 -0.437078
160.700000 -0.447073 -0.437078
160.750000 -0.447214 -0.437078
160.800000 -0.446840 -0.437078
160.850000 -0.445974 -0.437078
160.900000 -0.444662 -0.437078
160.950000 -0.442973 -0.437078
161.000000 -0.440993 -0.437078
161.050000 -0.438824 -0.437078
161.100000 -0.436577 -0.437078
161.150000 -0.434366 -0.437078
161.200000 -0.432303 -0.437078
161.250000 -0.430492 -0.437078
161.300000 -0.429022 -0.437078
161.350000 -0.427968 -0.437078
161.400000 -0.427379 -0.437078
161.450000 -0.427284 -0.437078
161.500000 -0.427686 -0.437078
161.550000 -0.428561 -0.437078
161.600000 -0.429863 -0.437078
161.650000 -0.431524 -0.437078
161.700000 -0.433458 -0.437078
161.750000 -0.435566 -0.437078
161.800000 -0.437741 -0.437078
161.850000 -0.439872 -0.437078
161.900000 -0.441851 -0.437078
161.950000 -0.443579 -0.437078
162.000000 -0.444970 -0.437078
162.050000 -0.445955 -0.437078
162.100000 -0.446486 -0.437078
162.150000 -0.446538 -0.437078
162.200000 -0.446111 -0.437078
162.250000 -0.445229 -0.437078
162.300000 -0.443938 -0.437078
162.350000 -0.442306 -0.437078
162.400000 -0.440418 -0.437078
162.450000 -0.438369 -0.437078
162.500000 -0.436265 -0.437078
162.550000 -0.434212 -0.437078
162.600000 -0.432313 -0.437078
162.650000 -0.430665 -0.437078
162.700000 -0.429350 -0.437078
162.750000 -0.428432 -0.437078
162.800000 -0.427956 -0.437078
162.850000 -0.427944 -0.437078
162.900000 -0.428394 -0.437078
162.950000 -0.429282 -0.437078
163.000000 -0.430560 -0.437078
163.050000 -0.432162 -0.437078
163.100000 -0.434006 -0.437078
163.150000 -0.435996 -0.437078
163.200000 -0.438031 -0.437078
163.250000 -0.440009 -0.437078
163.300000 -0.441828 -0.437078
163.350000 -0.443399 -0.437078
163.400000 -0.444642 -0.437078
163.450000 -0.445496 -0.437078
163.500000 -0.445921 -0.437078
163.550000 -0.445895 -0.437078
163.600000 -0.445423 -0.437078
163.650000 -0.444532 -0.437078
163.700000 -0.443267 -0.437078
163.750000 -0.441695 -0.437078
163.800000 -0.439896 -0.437078
163.850000 -0.437964 -0.437078
163.900000 -0.435996 -0.437078
163.950000 -0.434092 -0.437078
164.000000 -0.432348 -0.437078
164.050000 -0.430852 -0.437078
164.100000 -0.429678 -0.437078
164.150000 -0.428885 -0.437078
164.200000 -0.428510 -0.437078
164.250000 -0.428570 -0.437078
164.300000 -0.429061 -0.437078
164.350000 -0.429955 -0.437078
164.400000 -0.431206 -0.437078
164.450000 -0.432748 -0.437078
164.500000 -0.434502 -0.437078
164.550000 -0.436377 -0.437078
164.600000 -0.438280 -0.437078
164.650000 -0.440112 -0.437078
164.700000 -0.441782 -0.437078
164.750000 -0.443206 -0.437078
164.800000 -0.444314 -0.437078
164.850000 -0.445049 -0.437078
164.900000 -0.445378 -0.437078
164.950000 -0.445285 -0.437078
165.000000 -0.444776 -0.437078
165.050000 -0.443881 -0.437078
165.100000 -0.442646 -0.437078
165.150000 -0.441134 -0.437078
165.200000 -0.439425 -0.437078
165.250000 -0.437604 -0.437078
165.300000 -0.435766 -0.437078
165.350000 -0.434003 -0.437078
165.400000 -0.432404 -0.437078
165.450000 -0.431050 -0.437078
165.500000 -0.430006 -0.437078
165.550000 -0.429326 -0.437078
165.600000 -0.429041 -0.437078
165.650000 -0.429165 -0.437078
165.700000 -0.429689 -0.437078
165.750000 -0.430584 -0.437078
165.800000 -0.431803 -0.437078
165.850000 -0.433284 -0.437078
165.900000 -0.434950 -0.437078
165.950000 -0.436715 -0.437078
166.000000 -0.438491 -0.437078
166.050000 -0.440186 -0.437078
166.100000 -0.441717 -0.437078
166.150000 -0.443005 -0.437078
166.200000 -0.443987 -0.437078
166.250000 -0.444614 -0.437078
166.300000 -0.444857 -0.437078
166.350000 -0.444706 -0.437078
166.400000 -0.444168 -0.437078
166.450000 -0.443275 -0.437078
166.500000 -0.442072 -0.437078
166.550000 -0.440622 -0.437078
166.600000 -0.438999 -0.437078
166.650000 -0.437287 -0.437078
166.700000 -0.435573 -0.437078
166.750000 -0.433943 -0.437078
166.800000 -0.432479 -0.437078
166.850000 -0.431255 -0.437078
166.900000 -0.430332 -0.437078
166.950000 -0.429754 -0.437078
167.000000 -0.429550 -0.437078
167.050000 -0.429729 -0.437078
167.100000 -0.430278 -0.437078
167.150000 -0.431169 -0.437078
167.200000 -0.432354 -0.437078
167.250000 -0.433774 -0.437078
167.300000 -0.435353 -0.437078
167.350000 -0.437013 -0.437078
167.400000 -0.438668 -0.437078
167.450000 -0.440234 -0.437078
167.500000 -0.441634 -0.437078
167.550000 -0.442796 -0.437078
167.600000 -0.443663 -0.437078
167.650000 -0.444193 -0.437078
167.700000 -0.444360 -0.437078
167.750000 -0.444157 -0.437078
167.800000 -0.443598 -0.437078
167.850000 -0.442710 -0.437078
167.900000 -0.441542 -0.437078
167.950000 -0.440154 -0.437078
168.000000 -0.438617 -0.437078
168.050000 -0.437009 -0.437078
168.100000 -0.435412 -0.437078
168.150000 -0.433907 -0.437078
168.200000 -0.432570 -0.437078
168.250000 -0.431467 -0.437078
168.300000 -0.430653 -0.437078
168.350000 -0.430169 -0.437078
168.400000 -0.430037 -0.437078
168.450000 -0.430262 -0.437078
168.500000 -0.430830 -0.437078
168.550000 -0.431713 -0.437078
168.600000 -0.432862 -0.437078
168.650000 -0.434220 -0.437078
168.700000 -0.435716 -0.437078
168.750000 -0.437274 -0.437078
168.800000 -0.438814 -0.437078
168.850000 -0.440259 -0.437078
168.900000 -0.441536 -0.437078
168.950000 -0.442582 -0.437078
169.000000 -0.443344 -0.437078
169.050000 -0.443785 -0.437078
169.100000 -0.443884 -0.437078
169.150000 -0.443639 -0.437078
169.200000 -0.443063 -0.437078
169.250000 -0.442186 -0.437078
169.300000 -0.441055 -0.437078
169.350000 -0.439728 -0.437078
169.400000 -0.438273 -0.437078
169.450000 -0.436765 -0.437078
169.500000 -0.435280 -0.437078
169.550000 -0.433893 -0.437078
169.600000 -0.432673 -0.437078
169.650000 -0.431683 -0.437078
169.700000 -0.430970 -0.437078
169.750000 -0.430570 -0.437078
169.800000 -0.430501 -0.437078
169.850000 -0.430765 -0.437078
169.900000 -0.431348 -0.437078
169.950000 -0.432218 -0.437078
170.000000 -0.433330 -0.437078
170.050000 -0.434626 -0.437078
170.100000 -0.436041 -0.437078
170.150000 -0.437501 -0.437078
170.200000 -0.438932 -0.437078
170.250000 -0.440263 -0.437078
170.300000 -0.441427 -0.437078
170.350000 -0.442365 -0.437078
170.400000 -0.443030 -0.437078
170.450000 -0.443392 -0.437078
170.500000 -0.443431 -0.437078
170.550000 -0.443150 -0.437078
170.600000 -0.442562 -0.437078
170.650000 -0.441699 -0.437078
170.700000 -0.440607 -0.437078
170.750000 -0.439341 -0.437078
170.800000 -0.437967 -0.437078
170.850000 -0.436554 -0.437078
170.900000 -0.435174 -0.437078
170.950000 -0.433898 -0.437078
171.000000 -0.432788 -0.437078
171.050000 -0.431901 -0.437078
171.100000 -0.431280 -0.437078
171.150000 -0.430956 -0.437078
171.200000 -0.430943 -0.437078
171.250000 -0.431241 -0.437078
171.300000 -0.431832 -0.437078
171.350000 -0.432687 -0.437078
171.400000 -0.433760 -0.437078
171.450000 -0.434995 -0.437078
171.500000 -0.436330 -0.437078
171.550000 -0.437697 -0.437078
171.600000 -0.439026 -0.437078
171.650000 -0.440250 -0.437078
171.700000 -0.441307 -0.437078
171.750000 -0.442146 -0.437078
171.800000 -0.442724 -0.437078
171.850000 -0.443013 -0.437078
171.900000 -0.443001 -0.437078
171.950000 -0.442688 -0.437078
172.000000 -0.442094 -0.437078
172.050000 -0.441248 -0.437078
172.100000 -0.440195 -0.437078
172.150000 -0.438990 -0.437078
172.200000 -0.437693 -0.437078
172.250000 -0.436372 -0.437078
172.300000 -0.435092 -0.437078
172.350000 -0.433919 -0.437078
172.400000 -0.432912 -0.437078
172.450000 -0.432120 -0.437078
172.500000 -0.431583 -0.437078
172.550000 -0.431327 -0.437078
172.600000 -0.431363 -0.437078
172.650000 -0.431688 -0.437078
172.700000 -0.432285 -0.437078
172.750000 -0.433121 -0.437078
172.800000 -0.434154 -0.437078
172.850000 -0.435329 -0.437078
172.900000 -0.436588 -0.437078
172.950000 -0.437865 -0.437078
173.000000 -0.439097 -0.437078
173.050000 -0.440220 -0.437078
173.100000 -0.441179 -0.437078
173.150000 -0.441926 -0.437078
173.200000 -0.442424 -0.437078
173.250000 -0.442649 -0.437078
173.300000 -0.442591 -0.437078
173.350000 -0.442254 -0.437078
173.400000 -0.441657 -0.437078
173.450000 -0.440831 -0.437078
173.500000 -0.439818 -0.437078
173.550000 -0.438672 -0.437078
173.600000 -0.437451 -0.437078
173.650000 -0.436216 -0.437078
173.700000 -0.435031 -0.437078
173.750000 -0.433956 -0.437078
173.800000 -0.433043 -0.437078
173.850000 -0.432339 -0.437078
173.900000 -0.431878 -0.437078
173.950000 -0.431683 -0.437078
174.000000 -0.431762 -0.437078
174.050000 -0.432109 -0.437078
174.100000 -0.432707 -0.437078
174.150000 -0.433522 -0.437078
174.200000 -0.434514 -0.437078
174.250000 -0.435631 -0.437078
174.300000 -0.436816 -0.437078
174.350000 -0.438008 -0.437078
174.400000 -0.439148 -0.437078
174.450000 -0.440178 -0.437078
174.500000 -0.441045 -0.437078
174.550000 -0.441708 -0.437078
174.600000 -0.442133 -0.437078
174.650000 -0.442301 -0.437078
174.700000 -0.442203 -0.437078
174.750000 -0.441846 -0.437078
174.800000 -0.441250 -0.437078
174.850000 -0.440445 -0.437078
174.900000 -0.439473 -0.437078
174.950000 -0.438386 -0.437078
175.000000 -0.437237 -0.437078
175.050000 -0.436085 -0.437078
175.100000 -0.434989 -0.437078
175.150000 -0.434004 -0.437078
175.200000 -0.433180 -0.437078
175.250000 -0.432557 -0.437078
175.300000 -0.432165 -0.437078
175.350000 -0.432024 -0.437078
175.400000 -0.432140 -0.437078
175.450000 -0.432505 -0.437078
175.500000 -0.433100 -0.437078
175.550000 -0.433893 -0.437078
175.600000 -0.434844 -0.437078
175.650000 -0.435903 -0.437078
175.700000 -0.437017 -0.437078
175.750000 -0.438129 -0.437078
175.800000 -0.439182 -0.437078
175.850000 -0.440123 -0.437078
175.900000 -0.440906 -0.437078
175.950000 -0.441492 -0.437078
176.000000 -0.441851 -0.437078
176.050000 -0.441967 -0.437078
176.100000 -0.441835 -0.437078
176.150000 -0.441463 -0.437078
176.200000 -0.440870 -0.437078
176.250000 -0.440089 -0.437078
176.300000 -0.439159 -0.437078
176.350000 -0.438128 -0.437078
176.400000 -0.437048 -0.437078
176.450000 -0.435976 -0.437078
176.500000 -0.434964 -0.437078
176.550000 -0.434064 -0.437078
176.600000 -0.433321 -0.437078
176.650000 -0.432771 -0.437078
176.700000 -0.432443 -0.437078
176.750000 -0.432350 -0.437078
176.800000 -0.432497 -0.437078
176.850000 -0.432876 -0.437078
176.900000 -0.433465 -0.437078
176.950000 -0.434235 -0.437078
177.000000 -0.435144 -0.437078
177.050000 -0.436148 -0.437078
177.100000 -0.437193 -0.437078
177.150000 -0.438228 -0.437078
177.200000 -0.439200 -0.437078
177.250000 -0.440059 -0.437078
177.300000 -0.440764 -0.437078
177.350000 -0.441279 -0.437078
177.400000 -0.441578 -0.437078
177.450000 -0.441649 -0.437078
177.500000 -0.441487 -0.437078
177.550000 -0.441104 -0.437078
177.600000 -0.440518 -0.437078
177.650000 -0.439761 -0.437078
177.700000 -0.438872 -0.437078
177.750000 -0.437896 -0.437078
177.800000 -0.436884 -0.437078
177.850000 -0.435886 -0.437078
177.900000 -0.434953 -0.437078
177.950000 -0.434132 -0.437078
178.000000 -0.433465 -0.437078
178.050000 -0.432983 -0.437078
178.100000 -0.432711 -0.437078
178.150000 -0.432661 -0.437078
178.200000 -0.432835 -0.437078
178.250000 -0.433223 -0.437078
178.300000 -0.433805 -0.437078
178.350000 -0.434549 -0.437078
178.400000 -0.435418 -0.437078
178.450000 -0.436366 -0.437078
178.500000 -0.437347 -0.437078
178.550000 -0.438309 -0.437078
178.600000 -0.439204 -0.437078
178.650000 -0.439987 -0.437078
178.700000 -0.440619 -0.437078
178.750000 -0.441069 -0.437078
178.800000 -0.441315 -0.437078
178.850000 -0.441345 -0.437078
178.900000 -0.441159 -0.437078
178.950000 -0.440768 -0.437078
179.000000 -0.440191 -0.437078
179.050000 -0.439460 -0.437078
179.100000 -0.438611 -0.437078
179.150000 -0.437689 -0.437078
179.200000 -0.436741 -0.437078
179.250000 -0.435814 -0.437078
179.300000 -0.434955 -0.437078
179.350000 -0.434208 -0.437078
179.400000 -0.433610 -0.437078
179.450000 -0.433190 -0.437078
179.500000 -0.432969 -0.437078
179.550000 -0.432957 -0.437078
179.600000 -0.433154 -0.437078
179.650000 -0.433549 -0.437078
179.700000 -0.434120 -0.437078
179.750000 -0.434838 -0.437078
179.800000 -0.435666 -0.437078
179.850000 -0.436562 -0.437078
179.900000 -0.437479 -0.437078
179.950000 -0.438372 -0.437078
180.000000 -0.439196 -0.437078
180.050000 -0.439908 -0.437078
180.100000 -0.440473 -0.437078
180.150000 -0.440864 -0.437078
180.200000 -0.441061 -0.437078
180.250000 -0.441056 -0.437078
180.300000 -0.440850 -0.437078
180.350000 -0.440453 -0.437078
180.400000 -0.439888 -0.437078
180.450000 -0.439183 -0.437078
180.500000 -0.438375 -0.437078
180.550000 -0.437505 -0.437078
180.600000 -0.436617 -0.437078
180.650000 -0.435758 -0.437078
180.700000 -0.434969 -0.437078
180.750000 -0.434290 -0.437078
180.800000 -0.433756 -0.437078
180.850000 -0.433393 -0.437078
180.900000 -0.433218 -0.437078
180.950000 -0.433239 -0.437078
181.000000 -0.433455 -0.437078
181.050000 -0.433852 -0.437078
181.100000 -0.434411 -0.437078
181.150000 -0.435103 -0.437078
181.200000 -0.435891 -0.437078
181.250000 -0.436736 -0.437078
181.300000 -0.437594 -0.437078
181.350000 -0.438421 -0.437078
181.400000 -0.439177 -0.437078
181.450000 -0.439823 -0.437078
181.500000 -0.440327 -0.437078
181.550000 -0.440664 -0.437078
181.600000 -0.440818 -0.437078
181.650000 -0.440782 -0.437078
181.700000 -0.440558 -0.437078
181.750000 -0.440160 -0.437078
181.800000 -0.439607 -0.437078
181.850000 -0.438929 -0.437078
181.900000 -0.438161 -0.437078
181.950000 -0.437341 -0.437078
182.000000 -0.436512 -0.437078
182.050000 -0.435716 -0.437078
182.100000 -0.434992 -0.437078
182.150000 -0.434377 -0.437078
182.200000 -0.433902 -0.437078
182.250000 -0.433590 -0.437078
182.300000 -0.433457 -0.437078
182.350000 -0.433507 -0.437078
182.400000 -0.433737 -0.437078
182.450000 -0.434136 -0.437078
182.500000 -0.434681 -0.437078
182.550000 -0.435346 -0.437078
182.600000 -0.436095 -0.437078
182.650000 -0.436890 -0.437078
182.700000 -0.437691 -0.437078
182.750000 -0.438457 -0.437078
182.800000 -0.439149 -0.437078
182.850000 -0.439734 -0.437078
182.900000 -0.440181 -0.437078
182.950000 -0.440469 -0.437078
183.000000 -0.440584 -0.437078
183.050000 -0.440521 -0.437078
183.100000 -0.440284 -0.437078
183.150000 -0.439886 -0.437078
183.200000 -0.439348 -0.437078
183.250000 -0.438697 -0.437078
183.300000 -0.437968 -0.437078
183.350000 -0.437197 -0.437078
183.400000 -0.436423 -0.437078
183.450000 -0.435687 -0.437078
183.500000 -0.435024 -0.437078
183.550000 -0.434468 -0.437078
183.600000 -0.434048 -0.437078
183.650000 -0.433782 -0.437078
183.700000 -0.433685 -0.437078
183.750000 -0.433760 -0.437078
183.800000 -0.434003 -0.437078
183.850000 -0.434400 -0.437078
183.900000 -0.434930 -0.437078
183.950000 -0.435567 -0.437078
184.000000 -0.436278 -0.437078
184.050000 -0.437025 -0.437078
184.100000 -0.437772 -0.437078
184.150000 -0.438480 -0.437078
184.200000 -0.439114 -0.437078
184.250000 -0.439641 -0.437078
184.300000 -0.440037 -0.437078
184.350000 -0.440280 -0.437078
184.400000 -0.440361 -0.437078
184.450000 -0.440275 -0.437078
184.500000 -0.440027 -0.437078
184.550000 -0.439632 -0.437078
184.600000 -0.439109 -0.437078
184.650000 -0.438485 -0.437078
184.700000 -0.437794 -0.437078
184.750000 -0.437069 -0.437078
184.800000 -0.436349 -0.437078
184.850000 -0.435669 -0.437078
184.900000 -0.435063 -0.437078
184.950000 -0.434562 -0.437078
185.000000 -0.434191 -0.437078
185.050000 -0.433968 -0.437078
185.100000 -0.433903 -0.437078
185.150000 -0.434000 -0.437078
185.200000 -0.434252 -0.437078
185.250000 -0.434645 -0.437078
185.300000 -0.435160 -0.437078
185.350000 -0.435770 -0.437078
185.400000 -0.436443 -0.437078
185.450000 -0.437144 -0.437078
185.500000 -0.437840 -0.437078
185.550000 -0.438493 -0.437078
185.600000 -0.439071 -0.437078
185.650000 -0.439546 -0.437078
185.700000 -0.439894 -0.437078
185.750000 -0.440098 -0.437078
185.800000 -0.440147 -0.437078
185.850000 -0.440041 -0.437078
185.900000 -0.439786 -0.437078
185.950000 -0.439395 -0.437078
186.000000 -0.438888 -0.437078
186.050000 -0.438292 -0.437078
186.100000 -0.437638 -0.437078
186.150000 -0.436958 -0.437078
186.200000 -0.436288 -0.437078
186.250000 -0.435661 -0.437078
186.300000 -0.435108 -0.437078
186.350000 -0.434658 -0.437078
186.400000 -0.434333 -0.437078
186.450000 -0.434148 -0.437078
186.500000 -0.434112 -0.437078
186.550000 -0.434227 -0.437078
186.600000 -0.434485 -0.437078
186.650000 -0.434873 -0.437078
186.700000 -0.435372 -0.437078
186.750000 -0.435954 -0.437078
186.800000 -0.436590 -0.437078
186.850000 -0.437248 -0.437078
186.900000 -0.437894 -0.437078
186.950000 -0.438496 -0.437078
187.000000 -0.439024 -0.437078
187.050000 -0.439450 -0.437078
187.100000 -0.439754 -0.437078
187.150000 -0.439921 -0.437078
187.200000 -0.439944 -0.437078
187.250000 -0.439821 -0.437078
187.300000 -0.439560 -0.437078
187.350000 -0.439175 -0.437078
187.400000 -0.438685 -0.437078
187.450000 -0.438117 -0.437078
187.500000 -0.437498 -0.437078
187.550000 -0.436861 -0.437078
187.600000 -0.436239 -0.437078
187.650000 -0.435661 -0.437078
187.700000 -0.435158 -0.437078
187.750000 -0.434755 -0.437078
187.800000 -0.434471 -0.437078
187.850000 -0.434321 -0.437078
187.900000 -0.434311 -0.437078
187.950000 -0.434440 -0.437078
188.000000 -0.434703 -0.437078
188.050000 -0.435085 -0.437078
188.100000 -0.435566 -0.437078
188.150000 -0.436121 -0.437078
188.200000 -0.436722 -0.437078
188.250000 -0.437338 -0.437078
188.300000 -0.437938 -0.437078
188.350000 -0.438492 -0.437078
188.400000 -0.438971 -0.437078
188.450000 -0.439352 -0.437078
188.500000 -0.439617 -0.437078
188.550000 -0.439751 -0.437078
188.600000 -0.439750 -0.437078
188.650000 -0.439614 -0.437078
188.700000 -0.439349 -0.437078
188.750000 -0.438971 -0.437078
188.800000 -0.438499 -0.437078
188.850000 -0.437958 -0.437078
188.900000 -0.437374 -0.437078
188.950000 -0.436778 -0.437078
189.000000 -0.436200 -0.437078
189.050000 -0.435670 -0.437078
189.100000 -0.435213 -0.437078
189.150000 -0.434853 -0.437078
189.200000 -0.434607 -0.437078
189.250000 -0.434487 -0.437078
189.300000 -0.434499 -0.437078
189.350000 -0.434642 -0.437078
189.400000 -0.434907 -0.437078
189.450000 -0.435281 -0.437078
189.500000 -0.435744 -0.437078
189.550000 -0.436273 -0.437078
189.600000 -0.436839 -0.437078
189.650000 -0.437415 -0.437078
189.700000 -0.437972 -0.437078
189.750000 -0.438480 -0.437078
189.800000 -0.438915 -0.437078
189.850000 -0.439255 -0.437078
189.900000 -0.439483 -0.437078
189.950000 -0.439588 -0.437078
190.000000 -0.439566 -0.437078
190.050000 -0.439418 -0.437078
190.100000 -0.439152 -0.437078
190.150000 -0.438783 -0.437078
190.200000 -0.438329 -0.437078
190.250000 -0.437813 -0.437078
