time[ns] Raw_signal[mV]
-7.050000 0.237072
-7.000000 0.189110
-6.950000 0.120592
-6.900000 0.043509
-6.850000 -0.019870
-6.800000 -0.064407
-6.750000 -0.107231
-6.700000 -0.156906
-6.650000 -0.184313
-6.600000 -0.192878
-6.550000 -0.204869
-6.500000 -0.216859
-6.450000 -0.208295
-6.400000 -0.189452
-6.350000 -0.172323
-6.300000 -0.153480
-6.250000 -0.124360
-6.200000 -0.098666
-6.150000 -0.078110
-6.100000 -0.047277
-6.050000 0.004111
-6.000000 0.053787
-5.950000 0.093185
-5.900000 0.134295
-5.850000 0.177119
-5.800000 0.213091
-5.750000 0.237072
-5.700000 0.240498
-5.650000 0.219943
-5.600000 0.194249
-5.550000 0.182258
-5.500000 0.168554
-5.450000 0.142860
-5.400000 0.125731
-5.350000 0.108601
-5.300000 0.079481
-5.250000 0.053787
-5.200000 0.048648
-5.150000 0.033231
-5.100000 0.007537
-5.050000 -0.016444
-5.000000 -0.043852
-4.950000 -0.076398
-4.900000 -0.093527
-4.850000 -0.107231
-4.800000 -0.122647
-4.750000 -0.126073
-4.700000 -0.115795
-4.650000 -0.105518
-4.600000 -0.081536
-4.550000 -0.031861
-4.500000 0.016102
-4.450000 0.053787
-4.400000 0.110314
-4.350000 0.166841
-4.300000 0.202813
-4.250000 0.228508
-4.200000 0.247350
-4.150000 0.257628
-4.100000 0.266192
-4.050000 0.269618
-4.000000 0.257628
-3.950000 0.230220
-3.900000 0.216517
-3.850000 0.206239
-3.800000 0.183971
-3.750000 0.173693
-3.700000 0.168554
-3.650000 0.151425
-3.600000 0.137721
-3.550000 0.144573
-3.500000 0.136008
-3.450000 0.105175
-3.400000 0.093185
-3.350000 0.091472
-3.300000 0.064064
-3.250000 0.040083
-3.200000 0.036657
-3.150000 0.028092
-3.100000 0.012676
-3.050000 0.010963
-3.000000 0.009250
-2.950000 -0.001028
-2.900000 0.007537
-2.850000 0.029805
-2.800000 0.040083
-2.750000 0.050361
-2.700000 0.076055
-2.650000 0.103462
-2.600000 0.124018
-2.550000 0.147999
-2.500000 0.168554
-2.450000 0.187397
-2.400000 0.214804
-2.350000 0.231933
-2.300000 0.230221
-2.250000 0.240498
-2.200000 0.259341
-2.150000 0.250776
-2.100000 0.226795
-2.050000 0.206239
-2.000000 0.197674
-1.950000 0.202813
-1.900000 0.209665
-1.850000 0.216517
-1.800000 0.237072
-1.750000 0.269618
-1.700000 0.293600
-1.650000 0.319294
-1.600000 0.355266
-1.550000 0.379247
-1.500000 0.367257
-1.450000 0.341562
-1.400000 0.322720
-1.350000 0.291887
-1.300000 0.245637
-1.250000 0.192536
-1.200000 0.139434
-1.150000 0.084620
-1.100000 0.040083
-1.050000 0.017815
-1.000000 0.014389
-0.950000 0.014389
-0.900000 0.017815
-0.850000 0.028092
-0.800000 0.036657
-0.750000 0.038370
-0.700000 0.038370
-0.650000 0.036657
-0.600000 0.034944
-0.550000 0.033231
-0.500000 0.031518
-0.450000 0.031518
-0.400000 0.034944
-0.350000 0.029805
-0.300000 0.016102
-0.250000 0.021241
-0.200000 0.048648
-0.150000 0.072629
-0.100000 0.081194
-0.050000 0.082907
0.000000 0.081194
0.050000 0.084620
0.100000 0.089759
0.150000 0.076055
0.200000 0.045222
0.250000 0.029805
0.300000 0.036657
0.350000 0.036657
0.400000 0.028092
0.450000 0.028092
0.500000 0.028092
0.550000 0.024667
0.600000 0.024667
0.650000 0.016102
0.700000 -0.009592
0.750000 -0.033574
0.800000 -0.026722
0.850000 -0.023296
0.900000 -0.081536
0.950000 -0.163758
1.000000 -0.165471
1.050000 -0.102092
1.100000 -0.093527
1.150000 -0.098666
1.200000 -0.001028
1.250000 0.137721
1.300000 0.202813
1.350000 0.262767
1.400000 0.356979
1.450000 0.398090
1.500000 0.437487
1.550000 0.559107
1.600000 0.601931
1.650000 0.488876
1.700000 0.428923
1.750000 0.459756
1.800000 0.377534
1.850000 0.221656
1.900000 0.173693
1.950000 0.153138
2.000000 0.105175
2.050000 0.161703
2.100000 0.219943
2.150000 0.089759
2.200000 -0.038713
2.250000 0.031518
2.300000 0.124018
2.350000 0.137721
2.400000 0.185684
2.450000 0.178832
2.500000 0.022954
2.550000 -0.059268
2.600000 0.022954
2.650000 0.017815
2.700000 -0.074685
2.750000 -0.016444
2.800000 0.112027
2.850000 0.093184
2.900000 -0.001028
2.950000 -0.016444
3.000000 0.033231
3.050000 0.101749
3.100000 0.084620
3.150000 -0.100379
3.200000 -0.275100
3.250000 -0.235702
3.300000 -0.143203
3.350000 -0.180887
3.400000 -0.228850
3.450000 -0.215146
3.500000 -0.230563
3.550000 -0.220285
3.600000 -0.129499
3.650000 -0.086675
3.700000 -0.105518
3.750000 -0.019870
3.800000 0.117166
3.850000 0.103462
3.900000 0.009250
3.950000 0.014389
4.000000 0.045222
4.050000 -0.033574
4.100000 -0.110657
4.150000 -0.045564
4.200000 0.031518
4.250000 -0.031861
4.300000 -0.098666
4.350000 -0.001028
4.400000 0.120592
4.450000 0.077768
4.500000 0.009250
4.550000 0.105175
4.600000 0.221656
4.650000 0.182258
4.700000 0.113740
4.750000 0.134295
4.800000 0.125731
4.850000 0.045222
4.900000 0.012676
4.950000 0.019528
5.000000 -0.040426
5.050000 -0.141490
5.100000 -0.268248
5.150000 -0.535468
5.200000 -1.008242
5.250000 -1.607775
5.300000 -2.316936
5.350000 -3.169986
5.400000 -4.115534
5.450000 -5.047379
5.500000 -5.862743
5.550000 -6.460562
5.600000 -6.808291
5.650000 -6.837411
5.700000 -6.388618
5.750000 -5.407098
5.800000 -4.041877
5.850000 -2.378602
5.900000 -0.403571
5.950000 1.756459
6.000000 3.878804
6.050000 5.862400
6.100000 7.674701
6.150000 9.192376
6.200000 10.278386
6.250000 10.927594
6.300000 11.196527
6.350000 11.122870
6.400000 10.754586
6.450000 10.184173
6.500000 9.538392
6.550000 8.902887
6.600000 8.294789
6.650000 7.732942
6.700000 7.282436
6.750000 6.956976
6.800000 6.696607
6.850000 6.518460
6.900000 6.449942
6.950000 6.395128
7.000000 6.263231
7.050000 6.143324
7.100000 6.093649
7.150000 6.004575
7.200000 5.858974
7.250000 5.768188
7.300000 5.725365
7.350000 5.651708
7.400000 5.607171
7.450000 5.641430
7.500000 5.675689
7.550000 5.684254
7.600000 5.751058
7.650000 5.858975
7.700000 5.918928
7.750000 5.917215
7.800000 5.898372
7.850000 5.874391
7.900000 5.821289
7.950000 5.716800
8.000000 5.571199
8.050000 5.408468
8.100000 5.213192
8.150000 4.980231
8.200000 4.762687
8.250000 4.567410
8.300000 4.355005
8.350000 4.152876
8.400000 4.015840
8.450000 3.897646
8.500000 3.755472
8.550000 3.669824
8.600000 3.680101
8.650000 3.700657
8.700000 3.710935
8.750000 3.776027
8.800000 3.882230
8.850000 3.959313
8.900000 4.029543
8.950000 4.142599
9.000000 4.257366
9.050000 4.324171
9.100000 4.370421
9.150000 4.416670
9.200000 4.421809
9.250000 4.382412
9.300000 4.329310
9.350000 4.265931
9.400000 4.164867
9.450000 4.032970
9.500000 3.895933
9.550000 3.757185
9.600000 3.603019
9.650000 3.440289
9.700000 3.291263
9.750000 3.169643
9.800000 3.061727
9.850000 2.945246
9.900000 2.833904
9.950000 2.749970
10.000000 2.695156
10.050000 2.681452
10.100000 2.722563
10.150000 2.792794
10.200000 2.869877
10.250000 2.964089
10.300000 3.077144
10.350000 3.185059
10.400000 3.286123
10.450000 3.390613
10.500000 3.472835
10.550000 3.512233
10.600000 3.524224
10.650000 3.517372
10.700000 3.474547
10.750000 3.387187
10.800000 3.274133
10.850000 3.152514
10.900000 3.020616
10.950000 2.883581
11.000000 2.736267
11.050000 2.582101
11.100000 2.421084
11.150000 2.280622
11.200000 2.169280
11.250000 2.069929
11.300000 1.968865
11.350000 1.895208
11.400000 1.876365
11.450000 1.900347
11.500000 1.950022
11.550000 2.015114
11.600000 2.090484
11.650000 2.184696
11.700000 2.311455
11.750000 2.448491
11.800000 2.576962
11.850000 2.688304
11.900000 2.787654
11.950000 2.859599
12.000000 2.887006
12.050000 2.869877
12.100000 2.815062
12.150000 2.739692
12.200000 2.645480
12.250000 2.525574
12.300000 2.362843
12.350000 2.167567
12.400000 1.975716
12.450000 1.807848
12.500000 1.658821
12.550000 1.526924
12.600000 1.415582
12.650000 1.333361
12.700000 1.285397
12.750000 1.278545
12.800000 1.305953
12.850000 1.360768
12.900000 1.432712
12.950000 1.516646
13.000000 1.617710
13.050000 1.739330
13.100000 1.857523
13.150000 1.955161
13.200000 2.044235
13.250000 2.123031
13.300000 2.182984
13.350000 2.215530
13.400000 2.227520
13.450000 2.215530
13.500000 2.177844
13.550000 2.112753
13.600000 2.011689
13.650000 1.888356
13.700000 1.759885
13.750000 1.629701
13.800000 1.494378
13.850000 1.365906
13.900000 1.257990
13.950000 1.165491
14.000000 1.078131
14.050000 1.016464
14.100000 0.989057
14.150000 0.982205
14.200000 0.999335
14.250000 1.061001
14.300000 1.165492
14.350000 1.288824
14.400000 1.419008
14.450000 1.557757
14.500000 1.701645
14.550000 1.838681
14.600000 1.955161
14.650000 2.052799
14.700000 2.123031
14.750000 2.147012
14.800000 2.131595
14.850000 2.090485
14.900000 2.021966
14.950000 1.917477
15.000000 1.785579
15.050000 1.641691
15.100000 1.482387
15.150000 1.316231
15.200000 1.163778
15.250000 1.019891
15.300000 0.891419
15.350000 0.798920
15.400000 0.737254
15.450000 0.685865
15.500000 0.641329
15.550000 0.634477
15.600000 0.661884
15.650000 0.704708
15.700000 0.764661
15.750000 0.845169
15.800000 0.937669
15.850000 1.028455
15.900000 1.115815
15.950000 1.204890
16.000000 1.292249
16.050000 1.362480
16.100000 1.419008
16.150000 1.482387
16.200000 1.542340
16.250000 1.569747
16.300000 1.562895
16.350000 1.538914
16.400000 1.485813
16.450000 1.407017
16.500000 1.314518
16.550000 1.198037
16.600000 1.050724
16.650000 0.881142
16.700000 0.725263
16.750000 0.598505
16.800000 0.471746
16.850000 0.355266
16.900000 0.285035
16.950000 0.243924
17.000000 0.213091
17.050000 0.213091
17.100000 0.274757
17.150000 0.358692
17.200000 0.446052
17.250000 0.552255
17.300000 0.672162
17.350000 0.778365
17.400000 0.882854
17.450000 1.006187
17.500000 1.132945
17.550000 1.245999
17.600000 1.343639
17.650000 1.408731
17.700000 1.425859
17.750000 1.405304
17.800000 1.350490
17.850000 1.261417
17.900000 1.134658
17.950000 0.968502
18.000000 0.788642
18.050000 0.608782
18.100000 0.432349
18.150000 0.262767
18.200000 0.124018
18.250000 0.041796
18.300000 0.021241
18.350000 0.050361
18.400000 0.124018
18.450000 0.230221
18.500000 0.343275
18.550000 0.466608
18.600000 0.613921
18.650000 0.761235
18.700000 0.882854
18.750000 0.989057
18.800000 1.081556
18.850000 1.134658
18.900000 1.160353
18.950000 1.192898
19.000000 1.210028
19.050000 1.194611
19.100000 1.174056
19.150000 1.148361
19.200000 1.076418
19.250000 0.977067
19.300000 0.887993
19.350000 0.778365
19.400000 0.631051
19.450000 0.490589
19.500000 0.367257
19.550000 0.230220
19.600000 0.100036
19.650000 0.014389
19.700000 -0.040426
19.750000 -0.071259
19.800000 -0.054129
19.850000 -0.006167
19.900000 0.048648
19.950000 0.122305
20.000000 0.230221
20.050000 0.356979
20.100000 0.475172
20.150000 0.577949
20.200000 0.668735
20.250000 0.747531
20.300000 0.807484
20.350000 0.841744
20.400000 0.864012
20.450000 0.872576
20.500000 0.843457
20.550000 0.783503
20.600000 0.721837
20.650000 0.651606
20.700000 0.550542
20.750000 0.440913
20.800000 0.341562
20.850000 0.235359
20.900000 0.125731
20.950000 0.029805
21.000000 -0.057555
21.050000 -0.141490
21.100000 -0.192878
21.150000 -0.204869
21.200000 -0.201443
21.250000 -0.179175
21.300000 -0.127786
21.350000 -0.052416
21.400000 0.033231
21.450000 0.136008
21.500000 0.252489
21.550000 0.382673
21.600000 0.523135
21.650000 0.648180
21.700000 0.747531
21.750000 0.838317
21.800000 0.913687
21.850000 0.934243
21.900000 0.915400
21.950000 0.886280
22.000000 0.824614
22.050000 0.694430
22.100000 0.529987
22.150000 0.370682
22.200000 0.194249
22.250000 -0.001028
22.300000 -0.177462
22.350000 -0.317924
22.400000 -0.437830
22.450000 -0.528616
22.500000 -0.559450
22.550000 -0.530329
22.600000 -0.465237
22.650000 -0.365886
22.700000 -0.228850
22.750000 -0.066120
22.800000 0.103462
22.850000 0.264479
22.900000 0.416932
22.950000 0.553968
23.000000 0.661884
23.050000 0.732115
23.100000 0.769800
23.150000 0.781790
23.200000 0.757809
23.250000 0.696143
23.300000 0.624199
23.350000 0.557394
23.400000 0.487163
23.450000 0.401516
23.500000 0.309016
23.550000 0.226795
23.600000 0.139434
23.650000 0.038370
23.700000 -0.069546
23.750000 -0.175749
23.800000 -0.269961
23.850000 -0.343618
23.900000 -0.400145
23.950000 -0.442969
24.000000 -0.468663
24.050000 -0.458385
24.100000 -0.410423
24.150000 -0.324775
24.200000 -0.199730
24.250000 -0.054129
24.300000 0.088046
24.350000 0.240498
24.400000 0.398090
24.450000 0.535126
24.500000 0.636190
24.550000 0.708133
24.600000 0.740680
24.650000 0.704708
24.700000 0.619060
24.750000 0.524848
24.800000 0.415219
24.850000 0.266192
24.900000 0.100036
24.950000 -0.043851
25.000000 -0.163758
25.050000 -0.276813
25.100000 -0.369312
25.150000 -0.427552
25.200000 -0.448108
25.250000 -0.442969
25.300000 -0.429265
25.350000 -0.398432
25.400000 -0.336766
25.450000 -0.254544
25.500000 -0.167184
25.550000 -0.079823
25.600000 0.017815
25.650000 0.122305
25.700000 0.221656
25.750000 0.310729
25.800000 0.398090
25.850000 0.476885
25.900000 0.526561
25.950000 0.538552
26.000000 0.519709
26.050000 0.483737
26.100000 0.430636
26.150000 0.356979
26.200000 0.261054
26.250000 0.161703
26.300000 0.064064
26.350000 -0.047277
26.400000 -0.153480
26.450000 -0.233989
26.500000 -0.293942
26.550000 -0.359034
26.600000 -0.417275
26.650000 -0.446395
26.700000 -0.449821
26.750000 -0.444682
26.800000 -0.430978
26.850000 -0.384729
26.900000 -0.300794
26.950000 -0.206582
27.000000 -0.103805
27.050000 0.021241
27.100000 0.159990
27.150000 0.283322
27.200000 0.394664
27.250000 0.502580
27.300000 0.577949
27.350000 0.613921
27.400000 0.627625
27.450000 0.608782
27.500000 0.536839
27.550000 0.439200
27.600000 0.327859
27.650000 0.178832
27.700000 0.007537
27.750000 -0.129499
27.800000 -0.244267
27.850000 -0.362460
27.900000 -0.461811
27.950000 -0.514913
28.000000 -0.538894
28.050000 -0.547459
28.100000 -0.525190
28.150000 -0.478941
28.200000 -0.418988
28.250000 -0.336766
28.300000 -0.239128
28.350000 -0.136351
28.400000 -0.028435
28.450000 0.077768
28.500000 0.159990
28.550000 0.214804
28.600000 0.261054
28.650000 0.285035
28.700000 0.285035
28.750000 0.274757
28.800000 0.247350
28.850000 0.190823
28.900000 0.127443
28.950000 0.060638
29.000000 -0.013018
29.050000 -0.074685
29.100000 -0.107231
29.150000 -0.132925
29.200000 -0.155193
29.250000 -0.167184
29.300000 -0.172323
29.350000 -0.174036
29.400000 -0.163758
29.450000 -0.165471
29.500000 -0.199730
29.550000 -0.223711
29.600000 -0.228850
29.650000 -0.252831
29.700000 -0.295655
29.750000 -0.304220
29.800000 -0.280239
29.850000 -0.261396
29.900000 -0.227137
29.950000 -0.151767
30.000000 -0.062694
30.050000 0.021241
30.100000 0.101749
30.150000 0.183971
30.200000 0.257628
30.250000 0.303877
30.300000 0.315868
30.350000 0.291887
30.400000 0.245637
30.450000 0.168554
30.500000 0.062351
30.550000 -0.052416
30.600000 -0.163758
30.650000 -0.269961
30.700000 -0.360747
30.750000 -0.425839
30.800000 -0.466950
30.850000 -0.490932
30.900000 -0.489219
30.950000 -0.463524
31.000000 -0.425839
31.050000 -0.365886
31.100000 -0.281952
31.150000 -0.198017
31.200000 -0.117508
31.250000 -0.037000
31.300000 0.024667
31.350000 0.074342
31.400000 0.124018
31.450000 0.156564
31.500000 0.161703
31.550000 0.154851
31.600000 0.136008
31.650000 0.093184
31.700000 0.033231
31.750000 -0.033574
31.800000 -0.114082
31.850000 -0.201443
31.900000 -0.278526
31.950000 -0.350470
32.000000 -0.405284
32.050000 -0.427552
32.100000 -0.446395
32.150000 -0.475515
32.200000 -0.485793
32.250000 -0.478941
32.300000 -0.478941
32.350000 -0.465237
32.400000 -0.434404
32.450000 -0.410423
32.500000 -0.379590
32.550000 -0.314498
32.600000 -0.228850
32.650000 -0.151767
32.700000 -0.069546
32.750000 0.034944
32.800000 0.156564
32.850000 0.281609
32.900000 0.384386
32.950000 0.454617
33.000000 0.499154
33.050000 0.499154
33.100000 0.447765
33.150000 0.365544
33.200000 0.252489
33.250000 0.088046
33.300000 -0.100379
33.350000 -0.269961
33.400000 -0.429265
33.450000 -0.593709
33.500000 -0.718754
33.550000 -0.785559
33.600000 -0.821531
33.650000 -0.831809
33.700000 -0.794124
33.750000 -0.720467
33.800000 -0.631393
33.850000 -0.518339
33.900000 -0.396719
33.950000 -0.288803
34.000000 -0.189452
34.050000 -0.091814
34.100000 -0.031861
34.150000 -0.009593
34.200000 0.010963
34.250000 0.019528
34.300000 0.004111
34.350000 -0.001028
34.400000 0.005824
34.450000 -0.016444
34.500000 -0.047277
34.550000 -0.047277
34.600000 -0.037000
34.650000 -0.031861
34.700000 -0.014731
34.750000 0.000685
34.800000 -0.006167
34.850000 -0.011305
34.900000 -0.019870
34.950000 -0.057555
35.000000 -0.098666
35.050000 -0.127786
35.100000 -0.172323
35.150000 -0.221998
35.200000 -0.239128
35.250000 -0.239128
35.300000 -0.233989
35.350000 -0.196304
35.400000 -0.134638
35.450000 -0.072972
35.500000 -0.007880
35.550000 0.074342
35.600000 0.137721
35.650000 0.171980
35.700000 0.192536
35.750000 0.195962
35.800000 0.170267
35.850000 0.136008
35.900000 0.084620
35.950000 0.017815
36.000000 -0.042139
36.050000 -0.102092
36.100000 -0.182600
36.150000 -0.254544
36.200000 -0.293942
36.250000 -0.326488
36.300000 -0.372738
36.350000 -0.413849
36.400000 -0.439543
36.450000 -0.461811
36.500000 -0.465237
36.550000 -0.442969
36.600000 -0.424126
36.650000 -0.413849
36.700000 -0.393293
36.750000 -0.347044
36.800000 -0.288803
36.850000 -0.220285
36.900000 -0.143203
36.950000 -0.067833
37.000000 -0.002741
37.050000 0.055500
37.100000 0.101749
37.150000 0.139434
37.200000 0.166841
37.250000 0.168554
37.300000 0.151425
37.350000 0.127443
37.400000 0.082907
37.450000 0.010963
37.500000 -0.071259
37.550000 -0.143203
37.600000 -0.211721
37.650000 -0.278526
37.700000 -0.333340
37.750000 -0.369312
37.800000 -0.396719
37.850000 -0.422413
37.900000 -0.427552
37.950000 -0.400145
38.000000 -0.362460
38.050000 -0.324775
38.100000 -0.269961
38.150000 -0.199730
38.200000 -0.151767
38.250000 -0.120934
38.300000 -0.078110
38.350000 -0.035287
38.400000 -0.011305
38.450000 0.002398
38.500000 0.019528
38.550000 0.028092
38.600000 0.021241
38.650000 0.002398
38.700000 -0.028435
38.750000 -0.064407
38.800000 -0.102092
38.850000 -0.146628
38.900000 -0.191165
38.950000 -0.230563
39.000000 -0.276813
39.050000 -0.338479
39.100000 -0.388155
39.150000 -0.412136
39.200000 -0.420701
39.250000 -0.427552
39.300000 -0.430978
39.350000 -0.420701
39.400000 -0.401858
39.450000 -0.379590
39.500000 -0.355608
39.550000 -0.319636
39.600000 -0.273387
39.650000 -0.227137
39.700000 -0.168897
39.750000 -0.090101
39.800000 -0.002741
39.850000 0.069203
39.900000 0.132582
39.950000 0.201100
40.000000 0.261054
40.050000 0.288461
40.100000 0.278183
40.150000 0.254202
40.200000 0.221656
40.250000 0.154851
40.300000 0.041796
40.350000 -0.076398
40.400000 -0.177462
40.450000 -0.281952
40.500000 -0.389867
40.550000 -0.466950
40.600000 -0.504635
40.650000 -0.521765
40.700000 -0.530329
40.750000 -0.520052
40.800000 -0.489219
40.850000 -0.446395
40.900000 -0.398432
40.950000 -0.348757
41.000000 -0.297368
41.050000 -0.249406
41.100000 -0.208295
41.150000 -0.174036
41.200000 -0.138064
41.250000 -0.102092
41.300000 -0.083249
41.350000 -0.084962
41.400000 -0.108944
41.450000 -0.156906
41.500000 -0.213434
41.550000 -0.259683
41.600000 -0.307646
41.650000 -0.367599
41.700000 -0.429265
41.750000 -0.468663
41.800000 -0.492644
41.850000 -0.501209
41.900000 -0.489219
41.950000 -0.465237
42.000000 -0.441256
42.050000 -0.408710
42.100000 -0.365886
42.150000 -0.323062
42.200000 -0.285377
42.250000 -0.240841
42.300000 -0.187739
42.350000 -0.138064
42.400000 -0.100379
42.450000 -0.052416
42.500000 0.005824
42.550000 0.057213
42.600000 0.086333
42.650000 0.112027
42.700000 0.139434
42.750000 0.146286
42.800000 0.134295
42.850000 0.103462
42.900000 0.041796
42.950000 -0.035287
43.000000 -0.107231
43.050000 -0.191165
43.100000 -0.299081
43.150000 -0.388155
43.200000 -0.453247
43.250000 -0.526903
43.300000 -0.581718
43.350000 -0.588570
43.400000 -0.574866
43.450000 -0.573153
43.500000 -0.549172
43.550000 -0.487506
43.600000 -0.420700
43.650000 -0.359034
43.700000 -0.297368
43.750000 -0.233989
43.800000 -0.174036
43.850000 -0.126073
43.900000 -0.100379
43.950000 -0.090101
44.000000 -0.091814
44.050000 -0.100379
44.100000 -0.103805
44.150000 -0.110657
44.200000 -0.134638
44.250000 -0.158619
44.300000 -0.160332
44.350000 -0.163758
44.400000 -0.184313
44.450000 -0.204869
44.500000 -0.216859
44.550000 -0.235702
44.600000 -0.263109
44.650000 -0.288803
44.700000 -0.321349
44.750000 -0.352183
44.800000 -0.357321
44.850000 -0.362460
44.900000 -0.393293
44.950000 -0.410423
45.000000 -0.384729
45.050000 -0.360747
45.100000 -0.362460
45.150000 -0.347044
45.200000 -0.309359
45.250000 -0.281952
45.300000 -0.261396
45.350000 -0.228850
45.400000 -0.186026
45.450000 -0.150054
45.500000 -0.115795
45.550000 -0.069546
45.600000 -0.014731
45.650000 0.028092
45.700000 0.045222
45.750000 0.048648
45.800000 0.046935
45.850000 0.024667
45.900000 -0.030148
45.950000 -0.103805
46.000000 -0.186026
46.050000 -0.266535
46.100000 -0.350470
46.150000 -0.434404
46.200000 -0.509774
46.250000 -0.559449
46.300000 -0.600560
46.350000 -0.631393
46.400000 -0.622829
46.450000 -0.568014
46.500000 -0.497783
46.550000 -0.434404
46.600000 -0.381303
46.650000 -0.335053
46.700000 -0.271674
46.750000 -0.206582
46.800000 -0.168897
46.850000 -0.153480
46.900000 -0.134638
46.950000 -0.117508
47.000000 -0.105518
47.050000 -0.096953
47.100000 -0.096953
47.150000 -0.110657
47.200000 -0.122647
47.250000 -0.141490
47.300000 -0.172323
47.350000 -0.191165
47.400000 -0.199730
47.450000 -0.232276
47.500000 -0.278526
47.550000 -0.311072
47.600000 -0.336766
47.650000 -0.362460
47.700000 -0.388154
47.750000 -0.415562
47.800000 -0.441256
47.850000 -0.444682
47.900000 -0.432691
47.950000 -0.427552
48.000000 -0.406997
48.050000 -0.372738
48.100000 -0.338479
48.150000 -0.305933
48.200000 -0.264822
48.250000 -0.223711
48.300000 -0.196304
48.350000 -0.170610
48.400000 -0.151767
48.450000 -0.151767
48.500000 -0.158619
48.550000 -0.162045
48.600000 -0.174036
48.650000 -0.208295
48.700000 -0.252831
48.750000 -0.292229
48.800000 -0.331627
48.850000 -0.360747
48.900000 -0.367599
48.950000 -0.353896
49.000000 -0.347044
49.050000 -0.353895
49.100000 -0.353895
49.150000 -0.336766
49.200000 -0.312785
49.250000 -0.305933
49.300000 -0.295655
49.350000 -0.263109
49.400000 -0.230563
49.450000 -0.220285
49.500000 -0.215146
49.550000 -0.204869
49.600000 -0.211721
49.650000 -0.227137
49.700000 -0.230563
49.750000 -0.223711
49.800000 -0.218572
49.850000 -0.216859
49.900000 -0.215146
49.950000 -0.208295
50.000000 -0.211721
50.050000 -0.239128
50.100000 -0.269961
50.150000 -0.280239
50.200000 -0.290516
50.250000 -0.319636
50.300000 -0.341905
50.350000 -0.343618
50.400000 -0.350470
50.450000 -0.369312
50.500000 -0.376164
50.550000 -0.371025
50.600000 -0.364173
50.650000 -0.353895
50.700000 -0.335053
50.750000 -0.311072
50.800000 -0.295655
50.850000 -0.278526
50.900000 -0.239128
50.950000 -0.192878
51.000000 -0.165471
51.050000 -0.144916
51.100000 -0.105518
51.150000 -0.067833
51.200000 -0.048990
51.250000 -0.040426
51.300000 -0.037000
51.350000 -0.048990
51.400000 -0.081536
51.450000 -0.127786
51.500000 -0.187739
51.550000 -0.252831
51.600000 -0.331627
51.650000 -0.422414
51.700000 -0.496070
51.750000 -0.544033
51.800000 -0.586857
51.850000 -0.626255
51.900000 -0.639958
51.950000 -0.626255
52.000000 -0.600560
52.050000 -0.559449
52.100000 -0.487506
52.150000 -0.406997
52.200000 -0.340192
52.250000 -0.280239
52.300000 -0.216859
52.350000 -0.174036
52.400000 -0.162045
52.450000 -0.168897
52.500000 -0.194591
52.550000 -0.242554
52.600000 -0.285377
52.650000 -0.316211
52.700000 -0.355608
52.750000 -0.395006
52.800000 -0.415562
52.850000 -0.429265
52.900000 -0.448108
52.950000 -0.449821
53.000000 -0.430978
53.050000 -0.412136
53.100000 -0.408710
53.150000 -0.400145
53.200000 -0.393293
53.250000 -0.391580
53.300000 -0.391580
53.350000 -0.391580
53.400000 -0.384729
53.450000 -0.379590
53.500000 -0.381303
53.550000 -0.372738
53.600000 -0.331627
53.650000 -0.278526
53.700000 -0.242554
53.750000 -0.213434
53.800000 -0.174036
53.850000 -0.136351
53.900000 -0.108944
53.950000 -0.074685
54.000000 -0.050703
54.050000 -0.047277
54.100000 -0.040426
54.150000 -0.018157
54.200000 -0.019870
54.250000 -0.048990
54.300000 -0.071259
54.350000 -0.093527
54.400000 -0.139777
54.450000 -0.187739
54.500000 -0.228850
54.550000 -0.268248
54.600000 -0.305933
54.650000 -0.341905
54.700000 -0.388154
54.750000 -0.417275
54.800000 -0.403571
54.850000 -0.376164
54.900000 -0.347044
54.950000 -0.300794
55.000000 -0.239128
55.050000 -0.165471
55.100000 -0.074685
55.150000 0.026379
55.200000 0.105175
55.250000 0.159990
55.300000 0.194249
55.350000 0.195961
55.400000 0.166841
55.450000 0.117166
55.500000 0.029805
55.550000 -0.088388
55.600000 -0.211721
55.650000 -0.324775
55.700000 -0.420701
55.750000 -0.485793
55.800000 -0.526903
55.850000 -0.559449
55.900000 -0.559449
55.950000 -0.511487
56.000000 -0.446395
56.050000 -0.389867
56.100000 -0.328201
56.150000 -0.256257
56.200000 -0.201443
56.250000 -0.177462
56.300000 -0.168897
56.350000 -0.162045
56.400000 -0.163758
56.450000 -0.177462
56.500000 -0.196304
56.550000 -0.198017
56.600000 -0.186026
56.650000 -0.180887
56.700000 -0.182600
56.750000 -0.174036
56.800000 -0.162045
56.850000 -0.162045
56.900000 -0.177462
56.950000 -0.194591
57.000000 -0.216859
57.050000 -0.254544
57.100000 -0.307646
57.150000 -0.353895
57.200000 -0.389867
57.250000 -0.432691
57.300000 -0.484080
57.350000 -0.516626
57.400000 -0.520052
57.450000 -0.520052
57.500000 -0.496070
57.550000 -0.436117
57.600000 -0.360747
57.650000 -0.299081
57.700000 -0.233989
57.750000 -0.150054
57.800000 -0.067833
57.850000 0.002398
57.900000 0.065777
57.950000 0.103462
58.000000 0.098323
58.050000 0.082907
58.100000 0.070916
58.150000 0.043509
58.200000 -0.014731
58.250000 -0.086675
58.300000 -0.151767
58.350000 -0.206582
58.400000 -0.257970
58.450000 -0.305933
58.500000 -0.348757
58.550000 -0.379590
58.600000 -0.403571
58.650000 -0.434404
58.700000 -0.463524
58.750000 -0.477228
58.800000 -0.475515
58.850000 -0.472089
58.900000 -0.458385
58.950000 -0.425839
59.000000 -0.386441
59.050000 -0.347044
59.100000 -0.300794
59.150000 -0.247693
59.200000 -0.201443
59.250000 -0.174036
59.300000 -0.155193
59.350000 -0.146629
59.400000 -0.150054
59.450000 -0.158619
59.500000 -0.167184
59.550000 -0.186026
59.600000 -0.215147
59.650000 -0.237415
59.700000 -0.256257
59.750000 -0.278526
59.800000 -0.300794
59.850000 -0.312785
59.900000 -0.302507
59.950000 -0.271674
60.000000 -0.252831
60.050000 -0.256257
60.100000 -0.247693
60.150000 -0.218572
60.200000 -0.203156
60.250000 -0.201443
60.300000 -0.184313
60.350000 -0.158619
60.400000 -0.151767
60.450000 -0.160332
60.500000 -0.165471
60.550000 -0.167184
60.600000 -0.162045
60.650000 -0.162045
60.700000 -0.167184
60.750000 -0.163758
60.800000 -0.143203
60.850000 -0.120934
60.900000 -0.108944
60.950000 -0.090101
61.000000 -0.069546
61.050000 -0.057555
61.100000 -0.057555
61.150000 -0.071259
61.200000 -0.078111
61.250000 -0.088388
61.300000 -0.122647
61.350000 -0.163758
61.400000 -0.180888
61.450000 -0.201443
61.500000 -0.235702
61.550000 -0.259683
61.600000 -0.278526
61.650000 -0.316211
61.700000 -0.341905
61.750000 -0.335053
61.800000 -0.329914
61.850000 -0.333340
61.900000 -0.316211
61.950000 -0.283664
62.000000 -0.242554
62.050000 -0.192878
62.100000 -0.151767
62.150000 -0.129499
62.200000 -0.105518
62.250000 -0.078111
62.300000 -0.081536
62.350000 -0.107231
62.400000 -0.139777
62.450000 -0.180888
62.500000 -0.240841
62.550000 -0.297368
62.600000 -0.350470
62.650000 -0.396719
62.700000 -0.427552
62.750000 -0.444682
62.800000 -0.453247
62.850000 -0.456673
62.900000 -0.448108
62.950000 -0.425839
63.000000 -0.405284
63.050000 -0.386442
63.100000 -0.360747
63.150000 -0.335053
63.200000 -0.312785
63.250000 -0.292229
63.300000 -0.271674
63.350000 -0.254544
63.400000 -0.233989
63.450000 -0.213434
63.500000 -0.199730
63.550000 -0.180888
63.600000 -0.167184
63.650000 -0.170610
63.700000 -0.184313
63.750000 -0.191165
63.800000 -0.221998
63.850000 -0.273387
63.900000 -0.307646
63.950000 -0.321349
64.000000 -0.343618
64.050000 -0.362460
64.100000 -0.359034
64.150000 -0.336766
64.200000 -0.311072
64.250000 -0.287090
64.300000 -0.254544
64.350000 -0.199730
64.400000 -0.139777
64.450000 -0.107231
64.500000 -0.091814
64.550000 -0.072972
64.600000 -0.060981
64.650000 -0.071259
64.700000 -0.098666
64.750000 -0.143203
64.800000 -0.187739
64.850000 -0.216859
64.900000 -0.252831
64.950000 -0.288803
65.000000 -0.300794
65.050000 -0.304220
65.100000 -0.307646
65.150000 -0.283664
65.200000 -0.239128
65.250000 -0.208295
65.300000 -0.180888
65.350000 -0.144916
65.400000 -0.122647
65.450000 -0.120934
65.500000 -0.124360
65.550000 -0.138064
65.600000 -0.162045
65.650000 -0.187739
65.700000 -0.228850
65.750000 -0.285377
65.800000 -0.323062
65.850000 -0.336766
65.900000 -0.353895
65.950000 -0.357321
66.000000 -0.319636
66.050000 -0.273387
66.100000 -0.233989
66.150000 -0.177462
66.200000 -0.102092
66.250000 -0.043852
66.300000 -0.018157
66.350000 0.004111
66.400000 0.019528
66.450000 0.000685
66.500000 -0.042139
66.550000 -0.081536
66.600000 -0.124360
66.650000 -0.187739
66.700000 -0.257970
66.750000 -0.302507
66.800000 -0.329914
66.850000 -0.352182
66.900000 -0.360747
66.950000 -0.336766
67.000000 -0.299081
67.050000 -0.275100
67.100000 -0.249405
67.150000 -0.196304
67.200000 -0.138064
67.250000 -0.091814
67.300000 -0.050703
67.350000 -0.014731
67.400000 -0.007880
67.450000 -0.018157
67.500000 -0.025009
67.550000 -0.038713
67.600000 -0.062694
67.650000 -0.078111
67.700000 -0.105518
67.750000 -0.150054
67.800000 -0.194591
67.850000 -0.237415
67.900000 -0.288803
67.950000 -0.328201
68.000000 -0.345331
68.050000 -0.355608
68.100000 -0.367599
68.150000 -0.367599
68.200000 -0.353895
68.250000 -0.331627
68.300000 -0.305933
68.350000 -0.278526
68.400000 -0.244267
68.450000 -0.210008
68.500000 -0.194591
68.550000 -0.189452
68.600000 -0.189452
68.650000 -0.208295
68.700000 -0.237415
68.750000 -0.245980
68.800000 -0.245980
68.850000 -0.263109
68.900000 -0.271674
68.950000 -0.251118
69.000000 -0.221998
69.050000 -0.191165
69.100000 -0.139777
69.150000 -0.079823
69.200000 -0.023296
69.250000 0.031518
69.300000 0.082907
69.350000 0.118879
69.400000 0.127443
69.450000 0.113740
69.500000 0.086333
69.550000 0.055500
69.600000 0.019528
69.650000 -0.028435
69.700000 -0.081536
69.750000 -0.117508
69.800000 -0.136351
69.850000 -0.150054
69.900000 -0.170610
69.950000 -0.186026
70.000000 -0.198017
70.050000 -0.218572
70.100000 -0.237415
70.150000 -0.242554
70.200000 -0.245980
70.250000 -0.257970
70.300000 -0.273387
70.350000 -0.287090
70.400000 -0.290516
70.450000 -0.287090
70.500000 -0.278526
70.550000 -0.245980
70.600000 -0.194591
70.650000 -0.153480
70.700000 -0.136351
70.750000 -0.117508
70.800000 -0.081536
70.850000 -0.055842
70.900000 -0.060981
70.950000 -0.076398
71.000000 -0.098666
71.050000 -0.132925
71.100000 -0.172323
71.150000 -0.208295
71.200000 -0.251118
71.250000 -0.300794
71.300000 -0.345331
71.350000 -0.369312
71.400000 -0.362460
71.450000 -0.347044
71.500000 -0.335053
71.550000 -0.305933
71.600000 -0.252831
71.650000 -0.208295
71.700000 -0.175749
71.750000 -0.122647
71.800000 -0.069546
71.850000 -0.054129
71.900000 -0.052416
71.950000 -0.025009
72.000000 -0.007880
72.050000 -0.030148
72.100000 -0.059268
72.150000 -0.066120
72.200000 -0.078111
72.250000 -0.110657
72.300000 -0.141490
72.350000 -0.151767
72.400000 -0.163758
72.450000 -0.187739
72.500000 -0.204869
72.550000 -0.210008
72.600000 -0.216859
72.650000 -0.230563
72.700000 -0.227137
72.750000 -0.218572
72.800000 -0.225424
72.850000 -0.233989
72.900000 -0.221998
72.950000 -0.211721
73.000000 -0.216859
73.050000 -0.204869
73.100000 -0.163758
73.150000 -0.146628
73.200000 -0.151767
73.250000 -0.150054
73.300000 -0.144916
73.350000 -0.151767
73.400000 -0.151767
73.450000 -0.143203
73.500000 -0.153480
73.550000 -0.165471
73.600000 -0.151767
73.650000 -0.138064
73.700000 -0.143203
73.750000 -0.144916
73.800000 -0.138064
73.850000 -0.143203
73.900000 -0.153480
73.950000 -0.153480
74.000000 -0.165471
74.050000 -0.198017
74.100000 -0.239128
74.150000 -0.283665
74.200000 -0.321349
74.250000 -0.350470
74.300000 -0.384729
74.350000 -0.418988
74.400000 -0.427552
74.450000 -0.418988
74.500000 -0.415562
74.550000 -0.400145
74.600000 -0.355608
74.650000 -0.297368
74.700000 -0.240841
74.750000 -0.187739
74.800000 -0.131212
74.850000 -0.084962
74.900000 -0.050703
74.950000 -0.028435
75.000000 -0.019870
75.050000 -0.013018
75.100000 -0.006167
75.150000 -0.002741
75.200000 -0.004454
75.250000 -0.018157
75.300000 -0.040426
75.350000 -0.066120
75.400000 -0.095240
75.450000 -0.126073
75.500000 -0.138064
75.550000 -0.141490
75.600000 -0.144916
75.650000 -0.150054
75.700000 -0.143203
75.750000 -0.134638
75.800000 -0.132925
75.850000 -0.126073
75.900000 -0.114082
75.950000 -0.098666
76.000000 -0.093527
76.050000 -0.091814
76.100000 -0.083249
76.150000 -0.078110
76.200000 -0.084962
76.250000 -0.100379
76.300000 -0.100379
76.350000 -0.093527
76.400000 -0.103805
76.450000 -0.129499
76.500000 -0.144916
76.550000 -0.150054
76.600000 -0.160332
76.650000 -0.168897
76.700000 -0.167184
76.750000 -0.162045
76.800000 -0.155193
76.850000 -0.136351
76.900000 -0.112370
76.950000 -0.098666
77.000000 -0.096953
77.050000 -0.084962
77.100000 -0.079823
77.150000 -0.076397
77.200000 -0.059268
77.250000 -0.052416
77.300000 -0.071259
77.350000 -0.093527
77.400000 -0.105518
77.450000 -0.136351
77.500000 -0.174036
77.550000 -0.182600
77.600000 -0.172323
77.650000 -0.177462
77.700000 -0.184313
77.750000 -0.167184
77.800000 -0.138064
77.850000 -0.122647
77.900000 -0.105518
77.950000 -0.064407
78.000000 -0.014731
78.050000 0.009250
78.100000 0.005824
78.150000 0.004111
78.200000 0.002398
78.250000 -0.016444
78.300000 -0.059268
78.350000 -0.093527
78.400000 -0.117508
78.450000 -0.148341
78.500000 -0.165471
78.550000 -0.156906
78.600000 -0.146628
78.650000 -0.148341
78.700000 -0.131212
78.750000 -0.105518
78.800000 -0.105518
78.850000 -0.107231
78.900000 -0.091814
78.950000 -0.095240
79.000000 -0.129499
79.050000 -0.156906
79.100000 -0.167184
79.150000 -0.184313
79.200000 -0.203156
79.250000 -0.210008
79.300000 -0.201443
79.350000 -0.179175
79.400000 -0.160332
79.450000 -0.155193
79.500000 -0.148341
79.550000 -0.139777
79.600000 -0.150054
79.650000 -0.165471
79.700000 -0.172323
79.750000 -0.194591
79.800000 -0.237415
79.850000 -0.269961
79.900000 -0.297368
79.950000 -0.335053
80.000000 -0.364173
80.050000 -0.367599
80.100000 -0.355608
80.150000 -0.333340
80.200000 -0.299081
80.250000 -0.259683
80.300000 -0.199730
80.350000 -0.131212
80.400000 -0.071259
80.450000 -0.021583
80.500000 0.029805
80.550000 0.064064
80.600000 0.072629
80.650000 0.069203
80.700000 0.060638
80.750000 0.029805
80.800000 -0.007880
80.850000 -0.035287
80.900000 -0.054129
80.950000 -0.081536
81.000000 -0.105518
81.050000 -0.103805
81.100000 -0.086675
81.150000 -0.057555
81.200000 -0.014731
81.250000 0.028092
81.300000 0.058925
81.350000 0.082907
81.400000 0.103462
81.450000 0.112027
81.500000 0.103462
81.550000 0.082907
81.600000 0.057213
81.650000 0.024667
81.700000 -0.011305
81.750000 -0.043852
81.800000 -0.069546
81.850000 -0.084962
81.900000 -0.095240
81.950000 -0.086675
82.000000 -0.067833
82.050000 -0.059268
82.100000 -0.048990
82.150000 -0.026722
82.200000 -0.009593
82.250000 -0.009592
82.300000 -0.028435
82.350000 -0.057555
82.400000 -0.090101
82.450000 -0.115795
82.500000 -0.146628
82.550000 -0.189452
82.600000 -0.220285
82.650000 -0.228850
82.700000 -0.230563
82.750000 -0.223711
82.800000 -0.208295
82.850000 -0.210008
82.900000 -0.213434
82.950000 -0.196304
83.000000 -0.175749
83.050000 -0.180887
83.100000 -0.199730
83.150000 -0.215146
83.200000 -0.233989
83.250000 -0.257970
83.300000 -0.292229
83.350000 -0.319636
83.400000 -0.328201
83.450000 -0.331627
83.500000 -0.336766
83.550000 -0.329914
83.600000 -0.309359
83.650000 -0.295655
83.700000 -0.292229
83.750000 -0.280239
83.800000 -0.273387
83.850000 -0.276813
83.900000 -0.276813
83.950000 -0.264822
84.000000 -0.245980
84.050000 -0.233989
84.100000 -0.223711
84.150000 -0.208295
84.200000 -0.189452
84.250000 -0.180887
84.300000 -0.192878
84.350000 -0.210008
84.400000 -0.227137
84.450000 -0.259683
84.500000 -0.300794
84.550000 -0.348757
84.600000 -0.398432
84.650000 -0.439543
84.700000 -0.465237
84.750000 -0.468663
84.800000 -0.449821
84.850000 -0.413849
84.900000 -0.369312
84.950000 -0.312785
85.000000 -0.252831
85.050000 -0.198017
85.100000 -0.163758
85.150000 -0.134638
85.200000 -0.119221
85.250000 -0.131212
85.300000 -0.170610
85.350000 -0.211721
85.400000 -0.249406
85.450000 -0.300794
85.500000 -0.367599
85.550000 -0.413849
85.600000 -0.425839
85.650000 -0.429265
85.700000 -0.429265
85.750000 -0.417275
85.800000 -0.389867
85.850000 -0.365886
85.900000 -0.352182
85.950000 -0.345331
86.000000 -0.347044
86.050000 -0.353895
86.100000 -0.372738
86.150000 -0.403571
86.200000 -0.436117
86.250000 -0.465237
86.300000 -0.496070
86.350000 -0.523478
86.400000 -0.528616
86.450000 -0.513200
86.500000 -0.477228
86.550000 -0.422414
86.600000 -0.357321
86.650000 -0.288803
86.700000 -0.225424
86.750000 -0.175749
86.800000 -0.143203
86.850000 -0.114082
86.900000 -0.079823
86.950000 -0.067833
87.000000 -0.090101
87.050000 -0.124360
87.100000 -0.151767
87.150000 -0.177462
87.200000 -0.204869
87.250000 -0.228850
87.300000 -0.249405
87.350000 -0.268248
87.400000 -0.281952
87.450000 -0.280239
87.500000 -0.263109
87.550000 -0.242554
87.600000 -0.216859
87.650000 -0.189452
87.700000 -0.167184
87.750000 -0.153480
87.800000 -0.136351
87.850000 -0.114082
87.900000 -0.108944
87.950000 -0.122647
88.000000 -0.144916
88.050000 -0.175749
88.100000 -0.216859
88.150000 -0.256257
88.200000 -0.300794
88.250000 -0.350470
88.300000 -0.388155
88.350000 -0.406997
88.400000 -0.406997
88.450000 -0.393293
88.500000 -0.364173
88.550000 -0.338479
88.600000 -0.326488
88.650000 -0.317924
88.700000 -0.312785
88.750000 -0.309359
88.800000 -0.309359
88.850000 -0.314498
88.900000 -0.329914
88.950000 -0.348757
89.000000 -0.353895
89.050000 -0.345331
89.100000 -0.336766
89.150000 -0.326488
89.200000 -0.300794
89.250000 -0.252831
89.300000 -0.204869
89.350000 -0.174036
89.400000 -0.143203
89.450000 -0.112370
89.500000 -0.100379
89.550000 -0.095240
89.600000 -0.074685
89.650000 -0.048990
89.700000 -0.050703
89.750000 -0.050703
89.800000 -0.021583
89.850000 0.009250
89.900000 0.012676
89.950000 0.022954
90.000000 0.055500
90.050000 0.069203
90.100000 0.057213
90.150000 0.038370
90.200000 0.016102
90.250000 -0.011305
90.300000 -0.042139
90.350000 -0.072972
90.400000 -0.103805
90.450000 -0.119221
90.500000 -0.129499
90.550000 -0.151767
90.600000 -0.174036
90.650000 -0.194591
90.700000 -0.225424
90.750000 -0.257970
90.800000 -0.280239
90.850000 -0.309359
90.900000 -0.357321
90.950000 -0.408710
91.000000 -0.444682
91.050000 -0.465237
91.100000 -0.475515
91.150000 -0.465237
91.200000 -0.442969
91.250000 -0.413849
91.300000 -0.383016
91.350000 -0.340192
91.400000 -0.293942
91.450000 -0.261396
91.500000 -0.247693
91.550000 -0.244267
91.600000 -0.227137
91.650000 -0.213434
91.700000 -0.220285
91.750000 -0.225424
91.800000 -0.208295
91.850000 -0.194591
91.900000 -0.198017
91.950000 -0.184313
92.000000 -0.141490
92.050000 -0.096953
92.100000 -0.057555
92.150000 -0.016444
92.200000 0.009250
92.250000 0.004111
92.300000 -0.006167
92.350000 -0.018157
92.400000 -0.052416
92.450000 -0.098666
92.500000 -0.146629
92.550000 -0.201443
92.600000 -0.251118
92.650000 -0.280239
92.700000 -0.309359
92.750000 -0.347044
92.800000 -0.371025
92.850000 -0.372738
92.900000 -0.362460
92.950000 -0.338479
93.000000 -0.300794
93.050000 -0.263109
93.100000 -0.228850
93.150000 -0.198017
93.200000 -0.177462
93.250000 -0.163758
93.300000 -0.150054
93.350000 -0.144916
93.400000 -0.146629
93.450000 -0.139777
93.500000 -0.122647
93.550000 -0.122647
93.600000 -0.132925
93.650000 -0.131212
93.700000 -0.132925
93.750000 -0.144916
93.800000 -0.143203
93.850000 -0.134638
93.900000 -0.155193
93.950000 -0.180887
94.000000 -0.179175
94.050000 -0.179175
94.100000 -0.203156
94.150000 -0.215146
94.200000 -0.218572
94.250000 -0.244267
94.300000 -0.275100
94.350000 -0.281952
94.400000 -0.288803
94.450000 -0.292229
94.500000 -0.271674
94.550000 -0.252831
94.600000 -0.249406
94.650000 -0.225424
94.700000 -0.189452
94.750000 -0.174036
94.800000 -0.168897
94.850000 -0.155193
94.900000 -0.146629
94.950000 -0.143203
95.000000 -0.127786
95.050000 -0.126073
95.100000 -0.155193
95.150000 -0.199730
95.200000 -0.235702
95.250000 -0.259683
95.300000 -0.276813
95.350000 -0.297368
95.400000 -0.319636
95.450000 -0.328201
95.500000 -0.323062
95.550000 -0.316211
95.600000 -0.299081
95.650000 -0.263109
95.700000 -0.216859
95.750000 -0.168897
95.800000 -0.131212
95.850000 -0.108944
95.900000 -0.108944
95.950000 -0.131212
96.000000 -0.177462
96.050000 -0.245980
96.100000 -0.323062
96.150000 -0.398432
96.200000 -0.473802
96.250000 -0.542320
96.300000 -0.586857
96.350000 -0.607412
96.400000 -0.597134
96.450000 -0.561162
96.500000 -0.501209
96.550000 -0.418988
96.600000 -0.323062
96.650000 -0.228850
96.700000 -0.156906
96.750000 -0.110657
96.800000 -0.083249
96.850000 -0.069546
96.900000 -0.083249
96.950000 -0.120934
97.000000 -0.175749
97.050000 -0.239128
97.100000 -0.285377
97.150000 -0.305933
97.200000 -0.316211
97.250000 -0.323062
97.300000 -0.314498
97.350000 -0.290516
97.400000 -0.259683
97.450000 -0.215146
97.500000 -0.177462
97.550000 -0.163758
97.600000 -0.151767
97.650000 -0.127786
97.700000 -0.119221
97.750000 -0.129499
97.800000 -0.126073
97.850000 -0.103805
97.900000 -0.083249
97.950000 -0.069546
98.000000 -0.055842
98.050000 -0.040426
98.100000 -0.023296
98.150000 -0.004454
98.200000 -0.001028
98.250000 -0.009593
98.300000 -0.019870
98.350000 -0.031861
98.400000 -0.060981
98.450000 -0.103805
98.500000 -0.150054
98.550000 -0.175749
98.600000 -0.180888
98.650000 -0.179175
98.700000 -0.182600
98.750000 -0.184313
98.800000 -0.172323
98.850000 -0.153480
98.900000 -0.131212
98.950000 -0.108944
99.000000 -0.105518
99.050000 -0.115795
99.100000 -0.141490
99.150000 -0.177462
99.200000 -0.213434
99.250000 -0.230563
99.300000 -0.233989
99.350000 -0.240841
99.400000 -0.254544
99.450000 -0.257970
99.500000 -0.251118
99.550000 -0.237415
99.600000 -0.216859
99.650000 -0.199730
99.700000 -0.192878
99.750000 -0.186026
99.800000 -0.175749
99.850000 -0.179175
99.900000 -0.199730
99.950000 -0.218572
100.000000 -0.232276
100.050000 -0.266535
100.100000 -0.297368
100.150000 -0.304220
100.200000 -0.304220
100.250000 -0.305933
100.300000 -0.283664
100.350000 -0.242554
100.400000 -0.213434
100.450000 -0.201443
100.500000 -0.179175
100.550000 -0.155193
100.600000 -0.148341
100.650000 -0.163758
100.700000 -0.182600
100.750000 -0.192878
100.800000 -0.220285
100.850000 -0.268248
100.900000 -0.309359
100.950000 -0.333340
101.000000 -0.357321
101.050000 -0.377877
101.100000 -0.369312
101.150000 -0.350470
101.200000 -0.333340
101.250000 -0.304220
101.300000 -0.263109
101.350000 -0.237415
101.400000 -0.223711
101.450000 -0.210008
101.500000 -0.204869
101.550000 -0.203156
101.600000 -0.198017
101.650000 -0.201443
101.700000 -0.230563
101.750000 -0.254544
101.800000 -0.268248
101.850000 -0.288803
101.900000 -0.323062
101.950000 -0.343618
102.000000 -0.350470
102.050000 -0.360747
102.100000 -0.365886
102.150000 -0.352182
102.200000 -0.341905
102.250000 -0.336766
102.300000 -0.326488
102.350000 -0.307646
102.400000 -0.293942
102.450000 -0.285377
102.500000 -0.281952
102.550000 -0.268248
102.600000 -0.240841
102.650000 -0.220285
102.700000 -0.220285
102.750000 -0.216859
102.800000 -0.206582
102.850000 -0.199730
102.900000 -0.196304
102.950000 -0.180887
103.000000 -0.170610
103.050000 -0.175749
103.100000 -0.186026
103.150000 -0.199730
103.200000 -0.221998
103.250000 -0.235702
103.300000 -0.233989
103.350000 -0.230563
103.400000 -0.233989
103.450000 -0.230563
103.500000 -0.215146
103.550000 -0.196304
103.600000 -0.186026
103.650000 -0.184313
103.700000 -0.177462
103.750000 -0.180887
103.800000 -0.204869
103.850000 -0.242554
103.900000 -0.273387
103.950000 -0.317923
104.000000 -0.377877
104.050000 -0.422413
104.100000 -0.444682
104.150000 -0.468663
104.200000 -0.494357
104.250000 -0.499496
104.300000 -0.487506
104.350000 -0.463524
104.400000 -0.427552
104.450000 -0.386442
104.500000 -0.371025
104.550000 -0.367599
104.600000 -0.347044
104.650000 -0.331627
104.700000 -0.333340
104.750000 -0.324775
104.800000 -0.307646
104.850000 -0.311072
104.900000 -0.319636
104.950000 -0.293942
105.000000 -0.263109
105.050000 -0.244267
105.100000 -0.232276
105.150000 -0.216859
105.200000 -0.204869
105.250000 -0.199730
105.300000 -0.213434
105.350000 -0.240841
105.400000 -0.256257
105.450000 -0.263109
105.500000 -0.285377
105.550000 -0.297368
105.600000 -0.287090
105.650000 -0.280239
105.700000 -0.280239
105.750000 -0.257970
105.800000 -0.227137
105.850000 -0.218572
105.900000 -0.215146
105.950000 -0.199730
106.000000 -0.199730
106.050000 -0.216859
106.100000 -0.228850
106.150000 -0.240841
106.200000 -0.263109
106.250000 -0.278526
106.300000 -0.283665
106.350000 -0.288803
106.400000 -0.290516
106.450000 -0.293942
106.500000 -0.302507
106.550000 -0.309359
106.600000 -0.307646
106.650000 -0.304220
106.700000 -0.295655
106.750000 -0.278526
106.800000 -0.261396
106.850000 -0.257970
106.900000 -0.261396
106.950000 -0.259683
107.000000 -0.252831
107.050000 -0.247693
107.100000 -0.245980
107.150000 -0.247693
107.200000 -0.245980
107.250000 -0.228850
107.300000 -0.213434
107.350000 -0.216859
107.400000 -0.220285
107.450000 -0.227137
107.500000 -0.244267
107.550000 -0.257970
107.600000 -0.261396
107.650000 -0.280239
107.700000 -0.323062
107.750000 -0.355608
107.800000 -0.374451
107.850000 -0.395006
107.900000 -0.417275
107.950000 -0.425839
108.000000 -0.418988
108.050000 -0.403571
108.100000 -0.379590
108.150000 -0.338479
108.200000 -0.288803
108.250000 -0.244267
108.300000 -0.196304
108.350000 -0.132925
108.400000 -0.078110
108.450000 -0.050703
108.500000 -0.028435
108.550000 -0.007880
108.600000 -0.019870
108.650000 -0.052416
108.700000 -0.076398
108.750000 -0.100379
108.800000 -0.143203
108.850000 -0.201443
108.900000 -0.268248
108.950000 -0.331627
109.000000 -0.377877
109.050000 -0.418988
109.100000 -0.458385
109.150000 -0.484080
109.200000 -0.499496
109.250000 -0.506348
109.300000 -0.492644
109.350000 -0.458385
109.400000 -0.424126
109.450000 -0.386442
109.500000 -0.341905
109.550000 -0.295655
109.600000 -0.249406
109.650000 -0.201443
109.700000 -0.165471
109.750000 -0.146629
109.800000 -0.141490
109.850000 -0.148341
109.900000 -0.162045
109.950000 -0.180888
110.000000 -0.201443
110.050000 -0.230563
110.100000 -0.263109
110.150000 -0.292229
110.200000 -0.316211
110.250000 -0.340192
110.300000 -0.347044
110.350000 -0.331627
110.400000 -0.305933
110.450000 -0.275100
110.500000 -0.232276
110.550000 -0.186026
110.600000 -0.153480
110.650000 -0.122647
110.700000 -0.095240
110.750000 -0.084962
110.800000 -0.088388
110.850000 -0.103805
110.900000 -0.138064
110.950000 -0.175749
111.000000 -0.203156
111.050000 -0.240841
111.100000 -0.290516
111.150000 -0.317924
111.200000 -0.324775
111.250000 -0.328201
111.300000 -0.312785
111.350000 -0.281952
111.400000 -0.257970
111.450000 -0.230563
111.500000 -0.186026
111.550000 -0.153480
111.600000 -0.141490
111.650000 -0.127786
111.700000 -0.117508
111.750000 -0.129499
111.800000 -0.156906
111.850000 -0.191165
111.900000 -0.223711
111.950000 -0.244267
112.000000 -0.249405
112.050000 -0.249406
112.100000 -0.240841
112.150000 -0.204869
112.200000 -0.148341
112.250000 -0.079823
112.300000 -0.001028
112.350000 0.082907
112.400000 0.163415
112.450000 0.223369
112.500000 0.257628
112.550000 0.283322
112.600000 0.300452
112.650000 0.288461
112.700000 0.249063
112.750000 0.202813
112.800000 0.156564
112.850000 0.110314
112.900000 0.060638
112.950000 0.007537
113.000000 -0.033574
113.050000 -0.059268
113.100000 -0.084962
113.150000 -0.114082
113.200000 -0.127786
113.250000 -0.136351
113.300000 -0.162045
113.350000 -0.187739
113.400000 -0.191165
113.450000 -0.191165
113.500000 -0.198017
113.550000 -0.201443
113.600000 -0.210008
113.650000 -0.232276
113.700000 -0.256257
113.750000 -0.281952
113.800000 -0.319636
113.850000 -0.348757
113.900000 -0.362460
113.950000 -0.381303
114.000000 -0.403571
114.050000 -0.415562
114.100000 -0.418988
114.150000 -0.417275
114.200000 -0.401858
114.250000 -0.371025
114.300000 -0.329914
114.350000 -0.287090
114.400000 -0.261396
114.450000 -0.249405
114.500000 -0.237415
114.550000 -0.227137
114.600000 -0.239128
114.650000 -0.275100
114.700000 -0.311072
114.750000 -0.340192
114.800000 -0.352183
114.850000 -0.352183
114.900000 -0.350470
114.950000 -0.352182
115.000000 -0.324775
115.050000 -0.273387
115.100000 -0.228850
115.150000 -0.191165
115.200000 -0.132925
115.250000 -0.072972
115.300000 -0.035287
115.350000 -0.013018
115.400000 0.012676
115.450000 0.033231
115.500000 0.043509
115.550000 0.046935
115.600000 0.036657
115.650000 0.016102
115.700000 0.002398
115.750000 -0.006167
115.800000 -0.026722
115.850000 -0.050703
115.900000 -0.067833
115.950000 -0.071259
116.000000 -0.059268
116.050000 -0.045564
116.100000 -0.040426
116.150000 -0.028435
116.200000 0.004111
116.250000 0.021241
116.300000 0.017815
116.350000 0.029805
116.400000 0.045222
116.450000 0.033231
116.500000 0.005824
116.550000 -0.009593
116.600000 -0.031861
116.650000 -0.066120
116.700000 -0.091814
116.750000 -0.112370
116.800000 -0.120934
116.850000 -0.114082
116.900000 -0.098666
116.950000 -0.079823
117.000000 -0.055842
117.050000 -0.019870
117.100000 0.012676
117.150000 0.043509
117.200000 0.065777
117.250000 0.053787
117.300000 0.017815
117.350000 -0.016444
117.400000 -0.043851
117.450000 -0.074685
117.500000 -0.117508
117.550000 -0.155193
117.600000 -0.179175
117.650000 -0.196304
117.700000 -0.206582
117.750000 -0.204869
117.800000 -0.191165
117.850000 -0.170610
117.900000 -0.156906
117.950000 -0.148341
118.000000 -0.132925
118.050000 -0.119221
118.100000 -0.129499
118.150000 -0.153480
118.200000 -0.155193
118.250000 -0.144916
118.300000 -0.162045
118.350000 -0.186026
118.400000 -0.179175
118.450000 -0.175749
118.500000 -0.192878
118.550000 -0.206582
118.600000 -0.208295
118.650000 -0.216859
118.700000 -0.220285
118.750000 -0.203156
118.800000 -0.192878
118.850000 -0.194591
118.900000 -0.182600
118.950000 -0.156906
119.000000 -0.136351
119.050000 -0.122647
119.100000 -0.110657
119.150000 -0.107231
119.200000 -0.105518
119.250000 -0.108944
119.300000 -0.120934
119.350000 -0.143203
119.400000 -0.162045
119.450000 -0.189452
119.500000 -0.225424
119.550000 -0.247693
119.600000 -0.261396
119.650000 -0.281952
119.700000 -0.304220
119.750000 -0.309359
119.800000 -0.305933
119.850000 -0.304220
119.900000 -0.293942
119.950000 -0.257970
120.000000 -0.206582
120.050000 -0.151767
120.100000 -0.091814
120.150000 -0.025009
120.200000 0.024666
120.250000 0.046935
120.300000 0.053787
120.350000 0.060638
120.400000 0.052074
120.450000 0.017815
120.500000 -0.040426
120.550000 -0.107231
120.600000 -0.180888
120.650000 -0.251118
120.700000 -0.305933
120.750000 -0.343618
120.800000 -0.362460
120.850000 -0.372738
120.900000 -0.369312
120.950000 -0.341905
121.000000 -0.304220
121.050000 -0.278526
121.100000 -0.252831
121.150000 -0.227137
121.200000 -0.221998
121.250000 -0.227137
121.300000 -0.228850
121.350000 -0.232276
121.400000 -0.240841
121.450000 -0.247693
121.500000 -0.247693
121.550000 -0.240841
121.600000 -0.213434
121.650000 -0.184313
121.700000 -0.170610
121.750000 -0.158619
121.800000 -0.141490
121.850000 -0.136351
121.900000 -0.141490
121.950000 -0.146629
122.000000 -0.153480
122.050000 -0.170610
122.100000 -0.192878
122.150000 -0.215146
122.200000 -0.221998
122.250000 -0.230563
122.300000 -0.247693
122.350000 -0.249406
122.400000 -0.233989
122.450000 -0.223711
122.500000 -0.216859
122.550000 -0.204869
122.600000 -0.199730
122.650000 -0.203156
122.700000 -0.198017
122.750000 -0.186026
122.800000 -0.172323
122.850000 -0.158619
122.900000 -0.139777
122.950000 -0.122647
123.000000 -0.102092
123.050000 -0.078111
123.100000 -0.067833
123.150000 -0.064407
123.200000 -0.071259
123.250000 -0.086675
123.300000 -0.112369
123.350000 -0.146629
123.400000 -0.191165
123.450000 -0.240841
123.500000 -0.280239
123.550000 -0.293942
123.600000 -0.290516
123.650000 -0.292229
123.700000 -0.287090
123.750000 -0.261396
123.800000 -0.218572
123.850000 -0.186026
123.900000 -0.160332
123.950000 -0.143203
124.000000 -0.132925
124.050000 -0.134638
124.100000 -0.143203
124.150000 -0.153480
124.200000 -0.167184
124.250000 -0.179175
124.300000 -0.187739
124.350000 -0.192878
124.400000 -0.179175
124.450000 -0.156906
124.500000 -0.148341
124.550000 -0.139777
124.600000 -0.119221
124.650000 -0.112369
124.700000 -0.131212
124.750000 -0.170610
124.800000 -0.215146
124.850000 -0.266535
124.900000 -0.321349
124.950000 -0.364173
125.000000 -0.384729
125.050000 -0.393293
125.100000 -0.393293
125.150000 -0.381303
125.200000 -0.350470
125.250000 -0.302507
125.300000 -0.233989
125.350000 -0.168897
125.400000 -0.129499
125.450000 -0.119221
125.500000 -0.117508
125.550000 -0.127786
125.600000 -0.148341
125.650000 -0.172323
125.700000 -0.192878
125.750000 -0.210008
125.800000 -0.213434
125.850000 -0.210008
125.900000 -0.206582
125.950000 -0.184313
126.000000 -0.134638
126.050000 -0.088388
126.100000 -0.066120
126.150000 -0.037000
126.200000 -0.006167
126.250000 -0.014731
126.300000 -0.059268
126.350000 -0.093527
126.400000 -0.126073
126.450000 -0.182600
126.500000 -0.254544
126.550000 -0.314498
126.600000 -0.360747
126.650000 -0.395006
126.700000 -0.427552
126.750000 -0.439543
126.800000 -0.422413
126.850000 -0.398432
126.900000 -0.383016
126.950000 -0.357321
127.000000 -0.307646
127.050000 -0.256257
127.100000 -0.220285
127.150000 -0.186026
127.200000 -0.153480
127.250000 -0.138064
127.300000 -0.144916
127.350000 -0.153480
127.400000 -0.155193
127.450000 -0.175749
127.500000 -0.221998
127.550000 -0.261396
127.600000 -0.280239
127.650000 -0.305933
127.700000 -0.341905
127.750000 -0.352183
127.800000 -0.341905
127.850000 -0.333340
127.900000 -0.317924
127.950000 -0.287090
128.000000 -0.256257
128.050000 -0.228850
128.100000 -0.201443
128.150000 -0.187739
128.200000 -0.192878
128.250000 -0.203156
128.300000 -0.192878
128.350000 -0.184313
128.400000 -0.191165
128.450000 -0.203156
128.500000 -0.220285
128.550000 -0.239128
128.600000 -0.242554
128.650000 -0.230563
128.700000 -0.228850
128.750000 -0.230563
128.800000 -0.221998
128.850000 -0.225424
128.900000 -0.245980
128.950000 -0.251118
129.000000 -0.245980
129.050000 -0.252831
129.100000 -0.251118
129.150000 -0.221998
129.200000 -0.192878
129.250000 -0.172323
129.300000 -0.153480
129.350000 -0.136351
129.400000 -0.110657
129.450000 -0.071259
129.500000 -0.035287
129.550000 -0.011305
129.600000 0.024666
129.650000 0.055500
129.700000 0.065777
129.750000 0.074342
129.800000 0.084620
129.850000 0.079481
129.900000 0.074342
129.950000 0.077768
130.000000 0.074342
130.050000 0.069203
130.100000 0.074342
130.150000 0.069203
130.200000 0.046935
130.250000 0.028092
130.300000 0.012676
130.350000 0.000685
130.400000 -0.001028
130.450000 -0.014731
130.500000 -0.054129
130.550000 -0.098666
130.600000 -0.119221
130.650000 -0.139777
130.700000 -0.172323
130.750000 -0.198017
130.800000 -0.220285
130.850000 -0.254544
130.900000 -0.285377
130.950000 -0.304220
131.000000 -0.326488
131.050000 -0.352183
131.100000 -0.364173
131.150000 -0.372738
131.200000 -0.393293
131.250000 -0.401858
131.300000 -0.386442
131.350000 -0.365886
131.400000 -0.335053
131.450000 -0.292229
131.500000 -0.244267
131.550000 -0.182600
131.600000 -0.102092
131.650000 -0.038713
131.700000 -0.004454
131.750000 0.026379
131.800000 0.058926
131.850000 0.076055
131.900000 0.074342
131.950000 0.067490
132.000000 0.048648
132.050000 0.022954
132.100000 -0.004454
132.150000 -0.023296
132.200000 -0.033574
132.250000 -0.043851
132.300000 -0.066120
132.350000 -0.079823
132.400000 -0.071259
132.450000 -0.072972
132.500000 -0.086675
132.550000 -0.084962
132.600000 -0.074685
132.650000 -0.084962
132.700000 -0.108944
132.750000 -0.132925
132.800000 -0.163758
132.850000 -0.196304
132.900000 -0.225424
132.950000 -0.254544
133.000000 -0.281952
133.050000 -0.305933
133.100000 -0.317923
133.150000 -0.307646
133.200000 -0.281952
133.250000 -0.254544
133.300000 -0.221998
133.350000 -0.177462
133.400000 -0.148341
133.450000 -0.153480
133.500000 -0.167184
133.550000 -0.172323
133.600000 -0.180888
133.650000 -0.213434
133.700000 -0.254544
133.750000 -0.268248
133.800000 -0.264822
133.850000 -0.268248
133.900000 -0.259683
133.950000 -0.223711
134.000000 -0.177462
134.050000 -0.136351
134.100000 -0.098666
134.150000 -0.072972
134.200000 -0.066120
134.250000 -0.074685
134.300000 -0.098666
134.350000 -0.134638
134.400000 -0.174036
134.450000 -0.213434
134.500000 -0.252831
134.550000 -0.268248
134.600000 -0.252831
134.650000 -0.232276
134.700000 -0.204869
134.750000 -0.160332
134.800000 -0.103805
134.850000 -0.054129
134.900000 -0.013018
134.950000 0.010963
135.000000 0.009250
135.050000 0.000685
135.100000 0.000685
135.150000 -0.013018
135.200000 -0.052416
135.250000 -0.088388
135.300000 -0.108944
135.350000 -0.136351
135.400000 -0.167184
135.450000 -0.180887
135.500000 -0.182600
135.550000 -0.191165
135.600000 -0.201443
135.650000 -0.210008
135.700000 -0.211721
135.750000 -0.203156
135.800000 -0.180887
135.850000 -0.160332
135.900000 -0.136351
135.950000 -0.093527
136.000000 -0.055842
136.050000 -0.037000
136.100000 -0.016444
136.150000 0.016102
136.200000 0.026379
136.250000 0.004111
136.300000 -0.028435
136.350000 -0.060981
136.400000 -0.096953
136.450000 -0.141490
136.500000 -0.180888
136.550000 -0.191165
136.600000 -0.179175
136.650000 -0.168897
136.700000 -0.162045
136.750000 -0.148341
136.800000 -0.131212
136.850000 -0.120934
136.900000 -0.112369
136.950000 -0.093527
137.000000 -0.079823
137.050000 -0.079823
137.100000 -0.084962
137.150000 -0.081536
137.200000 -0.090101
137.250000 -0.115795
137.300000 -0.136351
137.350000 -0.124360
137.400000 -0.112370
137.450000 -0.124360
137.500000 -0.132925
137.550000 -0.131212
137.600000 -0.144916
137.650000 -0.165471
137.700000 -0.170610
137.750000 -0.170610
137.800000 -0.189452
137.850000 -0.208295
137.900000 -0.213434
137.950000 -0.223711
138.000000 -0.247693
138.050000 -0.268248
138.100000 -0.283665
138.150000 -0.302507
138.200000 -0.304220
138.250000 -0.290516
138.300000 -0.281952
138.350000 -0.285377
138.400000 -0.269961
138.450000 -0.239128
138.500000 -0.211721
138.550000 -0.191165
138.600000 -0.155193
138.650000 -0.120934
138.700000 -0.115795
138.750000 -0.117508
138.800000 -0.110657
138.850000 -0.115795
138.900000 -0.150054
138.950000 -0.192878
139.000000 -0.216859
139.050000 -0.242554
139.100000 -0.273387
139.150000 -0.275100
139.200000 -0.244267
139.250000 -0.211721
139.300000 -0.187739
139.350000 -0.136351
139.400000 -0.067833
139.450000 -0.014731
139.500000 0.028092
139.550000 0.077768
139.600000 0.115453
139.650000 0.132582
139.700000 0.130869
139.750000 0.105175
139.800000 0.074342
139.850000 0.055500
139.900000 0.028092
139.950000 -0.023296
140.000000 -0.055842
140.050000 -0.064407
140.100000 -0.088388
140.150000 -0.122647
140.200000 -0.131212
140.250000 -0.131212
140.300000 -0.148341
140.350000 -0.156906
140.400000 -0.136351
140.450000 -0.124360
140.500000 -0.120934
140.550000 -0.102092
140.600000 -0.069546
140.650000 -0.052416
140.700000 -0.048990
140.750000 -0.035287
140.800000 -0.018157
140.850000 -0.006167
140.900000 0.005824
140.950000 0.019528
141.000000 0.031518
141.050000 0.026379
141.100000 0.017815
141.150000 0.010963
141.200000 -0.001028
141.250000 -0.011305
141.300000 -0.028435
141.350000 -0.050703
141.400000 -0.084962
141.450000 -0.127786
141.500000 -0.172323
141.550000 -0.220285
141.600000 -0.283664
141.650000 -0.350470
141.700000 -0.401858
141.750000 -0.437830
141.800000 -0.472089
141.850000 -0.487506
141.900000 -0.472089
141.950000 -0.449821
142.000000 -0.422413
142.050000 -0.372738
142.100000 -0.314498
142.150000 -0.261396
142.200000 -0.203156
142.250000 -0.160332
142.300000 -0.153480
142.350000 -0.165471
142.400000 -0.175749
142.450000 -0.203156
142.500000 -0.251118
142.550000 -0.290516
142.600000 -0.305933
142.650000 -0.307646
142.700000 -0.312785
142.750000 -0.309359
142.800000 -0.281952
142.850000 -0.251118
142.900000 -0.239128
142.950000 -0.216859
143.000000 -0.177462
143.050000 -0.155193
143.100000 -0.163758
143.150000 -0.168897
143.200000 -0.170610
143.250000 -0.189452
143.300000 -0.218572
143.350000 -0.240841
143.400000 -0.251118
143.450000 -0.249405
143.500000 -0.252831
143.550000 -0.263109
143.600000 -0.268248
143.650000 -0.256257
143.700000 -0.240841
143.750000 -0.228850
143.800000 -0.211721
143.850000 -0.192878
143.900000 -0.189452
143.950000 -0.196304
144.000000 -0.211721
144.050000 -0.233989
144.100000 -0.256257
144.150000 -0.268248
144.200000 -0.266535
144.250000 -0.261396
144.300000 -0.264822
144.350000 -0.268248
144.400000 -0.252831
144.450000 -0.221998
144.500000 -0.192878
144.550000 -0.150054
144.600000 -0.090101
144.650000 -0.038713
144.700000 -0.006167
144.750000 0.028092
144.800000 0.055500
144.850000 0.065777
144.900000 0.062351
144.950000 0.053787
145.000000 0.036657
145.050000 0.022954
145.100000 0.014389
145.150000 0.007537
145.200000 0.004111
145.250000 0.005824
145.300000 -0.009592
145.350000 -0.038713
145.400000 -0.052416
145.450000 -0.064407
145.500000 -0.096953
145.550000 -0.143203
145.600000 -0.189452
145.650000 -0.251118
145.700000 -0.309359
145.750000 -0.336766
145.800000 -0.352183
145.850000 -0.369312
145.900000 -0.350470
145.950000 -0.290516
146.000000 -0.230563
146.050000 -0.179175
146.100000 -0.119221
146.150000 -0.069546
146.200000 -0.040426
146.250000 -0.025009
146.300000 -0.019870
146.350000 -0.050703
146.400000 -0.103805
146.450000 -0.162045
146.500000 -0.221998
146.550000 -0.283664
146.600000 -0.326488
146.650000 -0.345331
146.700000 -0.350470
146.750000 -0.348757
146.800000 -0.341905
146.850000 -0.323062
146.900000 -0.299081
146.950000 -0.283665
147.000000 -0.269961
147.050000 -0.254544
147.100000 -0.251118
147.150000 -0.266535
147.200000 -0.275100
147.250000 -0.271674
147.300000 -0.287090
147.350000 -0.307646
147.400000 -0.297368
147.450000 -0.280239
147.500000 -0.268248
147.550000 -0.244267
147.600000 -0.220285
147.650000 -0.227137
147.700000 -0.242554
147.750000 -0.235702
147.800000 -0.235702
147.850000 -0.254544
147.900000 -0.256257
147.950000 -0.239128
148.000000 -0.227137
148.050000 -0.208295
148.100000 -0.179175
148.150000 -0.156906
148.200000 -0.136351
148.250000 -0.110657
148.300000 -0.093527
148.350000 -0.079823
148.400000 -0.062694
148.450000 -0.060981
148.500000 -0.084962
148.550000 -0.105518
148.600000 -0.126073
148.650000 -0.160332
148.700000 -0.179175
148.750000 -0.162045
148.800000 -0.138064
148.850000 -0.114082
148.900000 -0.060981
148.950000 0.000685
149.000000 0.043509
149.050000 0.070916
149.100000 0.093184
149.150000 0.086333
149.200000 0.067490
149.250000 0.050361
149.300000 0.019528
149.350000 -0.035287
149.400000 -0.096953
149.450000 -0.141490
149.500000 -0.175749
149.550000 -0.191165
149.600000 -0.191165
149.650000 -0.177462
149.700000 -0.150054
149.750000 -0.102092
149.800000 -0.037000
149.850000 0.024667
149.900000 0.076055
149.950000 0.115453
150.000000 0.151425
150.050000 0.180545
150.100000 0.180545
150.150000 0.151425
150.200000 0.110314
150.250000 0.074342
150.300000 0.028092
150.350000 -0.052416
150.400000 -0.132925
150.450000 -0.187739
150.500000 -0.247693
150.550000 -0.321349
150.600000 -0.371025
150.650000 -0.391580
150.700000 -0.408710
150.750000 -0.417275
150.800000 -0.393293
150.850000 -0.360747
150.900000 -0.335053
150.950000 -0.299081
151.000000 -0.257970
151.050000 -0.237415
151.100000 -0.223711
151.150000 -0.201443
151.200000 -0.192878
151.250000 -0.208295
151.300000 -0.220285
151.350000 -0.218572
151.400000 -0.221998
151.450000 -0.233989
151.500000 -0.233989
151.550000 -0.232276
151.600000 -0.245980
151.650000 -0.257970
151.700000 -0.251118
151.750000 -0.247693
151.800000 -0.259683
151.850000 -0.268248
151.900000 -0.269961
151.950000 -0.276813
152.000000 -0.278526
152.050000 -0.254544
152.100000 -0.223711
152.150000 -0.196304
152.200000 -0.158619
152.250000 -0.105518
152.300000 -0.050703
152.350000 -0.004454
152.400000 0.034944
152.450000 0.074342
152.500000 0.106888
152.550000 0.130869
152.600000 0.147999
152.650000 0.154851
152.700000 0.156564
152.750000 0.147999
152.800000 0.127443
152.850000 0.096610
152.900000 0.070916
152.950000 0.055500
153.000000 0.052074
153.050000 0.045222
153.100000 0.021241
153.150000 -0.002741
153.200000 -0.001028
153.250000 0.000685
153.300000 -0.028435
153.350000 -0.062694
153.400000 -0.069546
153.450000 -0.071259
153.500000 -0.083249
153.550000 -0.083249
153.600000 -0.067833
153.650000 -0.048990
153.700000 -0.014731
153.750000 0.036657
153.800000 0.081194
153.850000 0.115453
153.900000 0.158277
153.950000 0.194249
154.000000 0.197674
154.050000 0.182258
154.100000 0.161702
154.150000 0.130869
154.200000 0.084620
154.250000 0.034944
154.300000 -0.016444
154.350000 -0.071259
154.400000 -0.119221
154.450000 -0.150054
154.500000 -0.167184
154.550000 -0.180888
154.600000 -0.187739
154.650000 -0.177462
154.700000 -0.158619
154.750000 -0.139777
154.800000 -0.114082
154.850000 -0.069546
154.900000 -0.031861
154.950000 -0.016444
155.000000 -0.002741
155.050000 0.005824
155.100000 -0.011305
155.150000 -0.052416
155.200000 -0.095240
155.250000 -0.127786
155.300000 -0.158619
155.350000 -0.177462
155.400000 -0.192878
155.450000 -0.208295
155.500000 -0.213434
155.550000 -0.194591
155.600000 -0.151767
155.650000 -0.110657
155.700000 -0.084962
155.750000 -0.050703
155.800000 0.005824
155.850000 0.040083
155.900000 0.026379
155.950000 -0.001028
156.000000 -0.025009
156.050000 -0.066120
156.100000 -0.126073
156.150000 -0.170610
156.200000 -0.201443
156.250000 -0.237415
156.300000 -0.268248
156.350000 -0.269961
156.400000 -0.257970
156.450000 -0.251118
156.500000 -0.232276
156.550000 -0.191165
156.600000 -0.143203
156.650000 -0.103805
156.700000 -0.083249
156.750000 -0.084962
156.800000 -0.096953
156.850000 -0.102092
156.900000 -0.114082
156.950000 -0.148341
157.000000 -0.198017
157.050000 -0.240841
157.100000 -0.271674
157.150000 -0.287090
157.200000 -0.283664
157.250000 -0.278526
157.300000 -0.271674
157.350000 -0.247693
157.400000 -0.206582
157.450000 -0.168897
157.500000 -0.146629
157.550000 -0.144916
157.600000 -0.141490
157.650000 -0.141490
157.700000 -0.151767
157.750000 -0.167184
157.800000 -0.180888
157.850000 -0.194591
157.900000 -0.204869
157.950000 -0.201443
158.000000 -0.198017
158.050000 -0.204869
158.100000 -0.184313
158.150000 -0.131212
158.200000 -0.088388
158.250000 -0.067833
158.300000 -0.043852
158.350000 -0.007880
158.400000 0.016102
158.450000 0.019528
158.500000 0.019528
158.550000 0.022954
158.600000 0.017815
158.650000 -0.001028
158.700000 -0.025009
158.750000 -0.050703
158.800000 -0.086675
158.850000 -0.120934
158.900000 -0.136351
158.950000 -0.146629
159.000000 -0.163758
159.050000 -0.163758
159.100000 -0.146628
159.150000 -0.136351
159.200000 -0.132925
159.250000 -0.126073
159.300000 -0.120934
159.350000 -0.124360
159.400000 -0.138064
159.450000 -0.167184
159.500000 -0.196304
159.550000 -0.216859
159.600000 -0.232276
159.650000 -0.242554
159.700000 -0.247693
159.750000 -0.251118
159.800000 -0.242554
159.850000 -0.213434
159.900000 -0.186026
159.950000 -0.177462
160.000000 -0.163758
160.050000 -0.139777
160.100000 -0.117508
160.150000 -0.096953
160.200000 -0.079823
160.250000 -0.069546
160.300000 -0.071259
160.350000 -0.088388
160.400000 -0.103805
160.450000 -0.110657
160.500000 -0.120934
160.550000 -0.143203
160.600000 -0.165471
160.650000 -0.184313
160.700000 -0.213434
160.750000 -0.244267
160.800000 -0.263109
160.850000 -0.281952
160.900000 -0.302507
160.950000 -0.293942
161.000000 -0.263109
161.050000 -0.230563
161.100000 -0.194591
161.150000 -0.141490
161.200000 -0.088388
161.250000 -0.057555
161.300000 -0.040426
161.350000 -0.018157
161.400000 -0.013018
161.450000 -0.033574
161.500000 -0.072972
161.550000 -0.108944
161.600000 -0.148341
161.650000 -0.198017
161.700000 -0.254544
161.750000 -0.299081
161.800000 -0.319636
161.850000 -0.324775
161.900000 -0.311072
161.950000 -0.280239
162.000000 -0.232276
162.050000 -0.187739
162.100000 -0.156906
162.150000 -0.115795
162.200000 -0.048990
162.250000 0.014389
162.300000 0.048648
162.350000 0.064064
162.400000 0.069203
162.450000 0.052074
162.500000 0.026379
162.550000 0.004111
162.600000 -0.030148
162.650000 -0.076398
162.700000 -0.107231
162.750000 -0.114082
162.800000 -0.127786
162.850000 -0.151767
162.900000 -0.151767
162.950000 -0.126073
163.000000 -0.117508
163.050000 -0.117508
163.100000 -0.103805
163.150000 -0.091814
163.200000 -0.100379
163.250000 -0.110657
163.300000 -0.120934
163.350000 -0.139777
163.400000 -0.165471
163.450000 -0.180888
163.500000 -0.196304
163.550000 -0.215146
163.600000 -0.233989
163.650000 -0.251118
163.700000 -0.266535
163.750000 -0.269961
163.800000 -0.254544
163.850000 -0.245980
163.900000 -0.245980
163.950000 -0.242554
164.000000 -0.218572
164.050000 -0.198017
164.100000 -0.180887
164.150000 -0.151767
164.200000 -0.108944
164.250000 -0.084962
164.300000 -0.074685
164.350000 -0.048990
164.400000 -0.023296
164.450000 -0.023296
164.500000 -0.040426
164.550000 -0.050703
164.600000 -0.066120
164.650000 -0.090101
164.700000 -0.107231
164.750000 -0.119221
164.800000 -0.139777
164.850000 -0.162045
164.900000 -0.162045
164.950000 -0.150054
165.000000 -0.143203
165.050000 -0.131212
165.100000 -0.102092
165.150000 -0.060981
165.200000 -0.023296
165.250000 0.007537
165.300000 0.033231
165.350000 0.050361
165.400000 0.053787
165.450000 0.038370
165.500000 0.021241
165.550000 0.010963
165.600000 -0.011305
165.650000 -0.047277
165.700000 -0.072972
165.750000 -0.081536
165.800000 -0.083249
165.850000 -0.090101
165.900000 -0.105518
165.950000 -0.127786
166.000000 -0.146628
166.050000 -0.163758
166.100000 -0.180888
166.150000 -0.192878
166.200000 -0.208295
166.250000 -0.228850
166.300000 -0.240841
166.350000 -0.233989
166.400000 -0.223711
166.450000 -0.216859
166.500000 -0.199730
166.550000 -0.172323
166.600000 -0.144916
166.650000 -0.129499
166.700000 -0.127786
166.750000 -0.126073
166.800000 -0.117508
166.850000 -0.115795
166.900000 -0.124360
166.950000 -0.126073
167.000000 -0.119221
167.050000 -0.120934
167.100000 -0.120934
167.150000 -0.105518
167.200000 -0.102092
167.250000 -0.124360
167.300000 -0.144916
167.350000 -0.146628
167.400000 -0.150054
167.450000 -0.168897
167.500000 -0.186026
167.550000 -0.189452
167.600000 -0.194591
167.650000 -0.208295
167.700000 -0.204869
167.750000 -0.179175
167.800000 -0.165471
167.850000 -0.170610
167.900000 -0.170610
167.950000 -0.168897
168.000000 -0.175749
168.050000 -0.186026
168.100000 -0.203156
168.150000 -0.221998
168.200000 -0.240841
168.250000 -0.257970
168.300000 -0.263109
168.350000 -0.257970
168.400000 -0.249406
168.450000 -0.239128
168.500000 -0.208295
168.550000 -0.167184
168.600000 -0.139777
168.650000 -0.115795
168.700000 -0.086675
168.750000 -0.062694
168.800000 -0.052416
168.850000 -0.045564
168.900000 -0.052416
168.950000 -0.064407
169.000000 -0.069546
169.050000 -0.071259
169.100000 -0.081536
169.150000 -0.083249
169.200000 -0.066120
169.250000 -0.055842
169.300000 -0.052416
169.350000 -0.037000
169.400000 -0.004454
169.450000 0.019528
169.500000 0.034944
169.550000 0.045222
169.600000 0.048648
169.650000 0.050361
169.700000 0.057213
169.750000 0.057213
169.800000 0.040083
169.850000 0.016102
169.900000 -0.004454
169.950000 -0.031861
170.000000 -0.086675
170.050000 -0.155193
170.100000 -0.206582
170.150000 -0.240841
170.200000 -0.276813
170.250000 -0.316211
170.300000 -0.335053
170.350000 -0.336766
170.400000 -0.323062
170.450000 -0.281952
170.500000 -0.221998
170.550000 -0.162045
170.600000 -0.100379
170.650000 -0.030148
170.700000 0.024667
170.750000 0.038370
170.800000 0.031518
170.850000 0.016102
170.900000 -0.016444
170.950000 -0.069546
171.000000 -0.127786
171.050000 -0.196304
171.100000 -0.257970
171.150000 -0.307646
171.200000 -0.350470
171.250000 -0.388154
171.300000 -0.388154
171.350000 -0.352183
171.400000 -0.314498
171.450000 -0.281952
171.500000 -0.225424
171.550000 -0.162045
171.600000 -0.117508
171.650000 -0.079823
171.700000 -0.042139
171.750000 -0.013018
171.800000 -0.001028
171.850000 0.007537
171.900000 0.014389
171.950000 0.007537
172.000000 -0.004454
172.050000 -0.018157
172.100000 -0.025009
172.150000 -0.030148
172.200000 -0.028435
172.250000 -0.023296
172.300000 -0.011305
172.350000 -0.007880
172.400000 -0.006167
172.450000 -0.001028
172.500000 0.007537
172.550000 0.007537
172.600000 -0.001028
172.650000 -0.011305
172.700000 -0.019870
172.750000 -0.037000
172.800000 -0.072972
172.850000 -0.122647
172.900000 -0.167184
172.950000 -0.203156
173.000000 -0.242554
173.050000 -0.268248
173.100000 -0.280239
173.150000 -0.287090
173.200000 -0.285377
173.250000 -0.263109
173.300000 -0.233989
173.350000 -0.211721
173.400000 -0.175749
173.450000 -0.124360
173.500000 -0.086675
173.550000 -0.067833
173.600000 -0.043851
173.650000 -0.011305
173.700000 -0.004454
173.750000 -0.023296
173.800000 -0.030148
173.850000 -0.019870
173.900000 -0.016444
173.950000 -0.021583
174.000000 -0.021583
174.050000 -0.025009
174.100000 -0.026722
174.150000 -0.019870
174.200000 -0.009592
174.250000 -0.009593
174.300000 -0.004454
174.350000 0.009250
174.400000 0.021241
174.450000 0.021241
174.500000 0.028092
174.550000 0.043509
174.600000 0.057213
174.650000 0.069203
174.700000 0.070916
174.750000 0.070916
174.800000 0.072629
174.850000 0.055500
174.900000 0.004111
174.950000 -0.052416
175.000000 -0.091814
175.050000 -0.131212
175.100000 -0.172323
175.150000 -0.203156
175.200000 -0.233989
175.250000 -0.266535
175.300000 -0.285377
175.350000 -0.278526
175.400000 -0.266535
175.450000 -0.249405
175.500000 -0.216859
175.550000 -0.168897
175.600000 -0.117508
175.650000 -0.074685
175.700000 -0.043852
175.750000 -0.009593
175.800000 0.017815
175.850000 0.029805
175.900000 0.024667
175.950000 0.010963
176.000000 -0.007880
176.050000 -0.031861
176.100000 -0.062694
176.150000 -0.098666
176.200000 -0.138064
176.250000 -0.168897
176.300000 -0.191165
176.350000 -0.204869
176.400000 -0.196304
176.450000 -0.163758
176.500000 -0.134638
176.550000 -0.107231
176.600000 -0.062694
176.650000 -0.019870
176.700000 0.004111
176.750000 0.024667
176.800000 0.041796
176.850000 0.034944
176.900000 0.010963
176.950000 -0.011305
177.000000 -0.047277
177.050000 -0.091814
177.100000 -0.126073
177.150000 -0.158619
177.200000 -0.192878
177.250000 -0.210008
177.300000 -0.221998
177.350000 -0.239128
177.400000 -0.245980
177.450000 -0.245980
177.500000 -0.263109
177.550000 -0.278526
177.600000 -0.276813
177.650000 -0.275100
177.700000 -0.281952
177.750000 -0.268248
177.800000 -0.240841
177.850000 -0.230563
177.900000 -0.227137
177.950000 -0.201443
178.000000 -0.172323
178.050000 -0.146628
178.100000 -0.122647
178.150000 -0.103805
178.200000 -0.091814
178.250000 -0.078110
178.300000 -0.060981
178.350000 -0.048990
178.400000 -0.045564
178.450000 -0.062694
178.500000 -0.086675
178.550000 -0.100379
178.600000 -0.098666
178.650000 -0.098666
178.700000 -0.102092
178.750000 -0.078111
178.800000 -0.040426
178.850000 -0.019870
178.900000 0.000685
178.950000 0.038370
179.000000 0.072629
179.050000 0.084620
179.100000 0.088046
179.150000 0.086333
179.200000 0.072629
179.250000 0.057213
179.300000 0.034944
179.350000 -0.001028
179.400000 -0.038713
179.450000 -0.071259
179.500000 -0.103805
179.550000 -0.127786
179.600000 -0.129499
179.650000 -0.115795
179.700000 -0.093527
179.750000 -0.050703
179.800000 0.002398
179.850000 0.040083
179.900000 0.067490
179.950000 0.110314
180.000000 0.142860
180.050000 0.122305
180.100000 0.079481
180.150000 0.045222
180.200000 -0.001028
180.250000 -0.078111
180.300000 -0.151767
180.350000 -0.215147
180.400000 -0.271674
180.450000 -0.311072
180.500000 -0.319636
180.550000 -0.312785
180.600000 -0.297368
180.650000 -0.257970
180.700000 -0.206582
180.750000 -0.165471
180.800000 -0.129499
180.850000 -0.090101
180.900000 -0.067833
180.950000 -0.060981
181.000000 -0.060981
181.050000 -0.066120
181.100000 -0.079823
181.150000 -0.086675
181.200000 -0.086675
181.250000 -0.083249
181.300000 -0.084962
181.350000 -0.086675
181.400000 -0.078111
181.450000 -0.071259
181.500000 -0.078110
181.550000 -0.096953
181.600000 -0.117508
181.650000 -0.139777
181.700000 -0.174036
181.750000 -0.211721
181.800000 -0.249405
181.850000 -0.283665
181.900000 -0.305933
181.950000 -0.314498
182.000000 -0.311072
182.050000 -0.304220
182.100000 -0.297368
182.150000 -0.283665
182.200000 -0.261396
182.250000 -0.235702
182.300000 -0.211721
182.350000 -0.206582
182.400000 -0.208295
182.450000 -0.216859
182.500000 -0.227137
182.550000 -0.230563
182.600000 -0.233989
182.650000 -0.239128
182.700000 -0.249405
182.750000 -0.264822
182.800000 -0.280239
182.850000 -0.293942
182.900000 -0.297368
182.950000 -0.299081
183.000000 -0.293942
183.050000 -0.285377
183.100000 -0.283664
183.150000 -0.297368
183.200000 -0.317923
183.250000 -0.335053
183.300000 -0.353895
183.350000 -0.383016
183.400000 -0.420700
183.450000 -0.454959
183.500000 -0.475515
183.550000 -0.477228
183.600000 -0.475515
183.650000 -0.473802
183.700000 -0.458385
183.750000 -0.420701
183.800000 -0.381303
183.850000 -0.348757
183.900000 -0.307646
183.950000 -0.268248
184.000000 -0.245980
184.050000 -0.232276
184.100000 -0.215147
184.150000 -0.191165
184.200000 -0.167184
184.250000 -0.155193
184.300000 -0.153480
184.350000 -0.150054
184.400000 -0.136351
184.450000 -0.129499
184.500000 -0.126073
184.550000 -0.120934
184.600000 -0.114082
184.650000 -0.112369
184.700000 -0.108944
184.750000 -0.120934
184.800000 -0.150054
184.850000 -0.168897
184.900000 -0.174036
184.950000 -0.180888
185.000000 -0.192878
185.050000 -0.203156
185.100000 -0.206582
185.150000 -0.208295
185.200000 -0.220285
185.250000 -0.237415
185.300000 -0.244267
185.350000 -0.233989
185.400000 -0.218572
185.450000 -0.203156
185.500000 -0.172323
185.550000 -0.141490
185.600000 -0.120934
185.650000 -0.090101
185.700000 -0.038713
185.750000 -0.006167
185.800000 -0.004454
185.850000 0.000685
185.900000 0.010963
185.950000 -0.006167
186.000000 -0.050703
186.050000 -0.093527
186.100000 -0.122647
186.150000 -0.141490
186.200000 -0.146629
186.250000 -0.148341
186.300000 -0.141490
186.350000 -0.108944
186.400000 -0.064407
186.450000 -0.038713
186.500000 -0.016444
186.550000 0.019528
186.600000 0.040083
186.650000 0.029805
186.700000 0.009250
186.750000 -0.011305
186.800000 -0.043852
186.850000 -0.084962
186.900000 -0.115795
186.950000 -0.134638
187.000000 -0.138064
187.050000 -0.132925
187.100000 -0.110657
187.150000 -0.074685
187.200000 -0.028435
187.250000 0.010963
187.300000 0.033231
187.350000 0.038370
187.400000 0.036657
187.450000 0.026379
187.500000 -0.007880
187.550000 -0.066120
187.600000 -0.132925
187.650000 -0.194591
187.700000 -0.257970
187.750000 -0.312785
187.800000 -0.348757
187.850000 -0.360747
187.900000 -0.353895
187.950000 -0.326488
188.000000 -0.278526
188.050000 -0.223711
188.100000 -0.170610
188.150000 -0.129499
188.200000 -0.103805
188.250000 -0.090101
188.300000 -0.086675
188.350000 -0.103805
188.400000 -0.131212
188.450000 -0.163758
188.500000 -0.203156
188.550000 -0.244267
188.600000 -0.268248
188.650000 -0.280239
188.700000 -0.288803
188.750000 -0.275100
188.800000 -0.247693
188.850000 -0.227137
188.900000 -0.216859
188.950000 -0.194591
189.000000 -0.174036
189.050000 -0.191165
189.100000 -0.228850
189.150000 -0.257970
189.200000 -0.278526
189.250000 -0.321349
189.300000 -0.367599
189.350000 -0.395006
189.400000 -0.413849
189.450000 -0.429265
189.500000 -0.425839
189.550000 -0.401858
189.600000 -0.379590
189.650000 -0.364173
189.700000 -0.331627
189.750000 -0.299081
189.800000 -0.285377
189.850000 -0.290516
189.900000 -0.293942
189.950000 -0.297368
190.000000 -0.302507
190.050000 -0.304220
190.100000 -0.293942
190.150000 -0.276813
190.200000 -0.244267
190.250000 -0.206582
190.300000 -0.168897
190.350000 -0.117508
190.400000 -0.060981
190.450000 -0.028435
190.500000 -0.004454
190.550000 0.033231
190.600000 0.052074
190.650000 0.033231
190.700000 0.005824
190.750000 -0.002741
190.800000 -0.007880
190.850000 -0.030148
190.900000 -0.062694
190.950000 -0.083249
191.000000 -0.083249
191.050000 -0.078110
191.100000 -0.084962
191.150000 -0.091814
191.200000 -0.096953
191.250000 -0.115795
191.300000 -0.156906
191.350000 -0.189452
191.400000 -0.218572
191.450000 -0.257970
191.500000 -0.302507
191.550000 -0.335053
191.600000 -0.355608
191.650000 -0.360747
191.700000 -0.352183
191.750000 -0.328201
191.800000 -0.295655
191.850000 -0.259683
191.900000 -0.223711
191.950000 -0.180888
192.000000 -0.138064
192.050000 -0.115795
192.100000 -0.107231
192.150000 -0.093527
192.200000 -0.078111
192.250000 -0.090101
192.300000 -0.112369
192.350000 -0.117508
192.400000 -0.117508
192.450000 -0.139777
192.500000 -0.168897
192.550000 -0.170610
192.600000 -0.150054
192.650000 -0.139777
192.700000 -0.136351
192.750000 -0.119221
192.800000 -0.102092
192.850000 -0.095240
192.900000 -0.086675
192.950000 -0.081536
